Data from JCR0019_BlackVentral_Reflection_00003.txt Node
Date: Thu Jul 23 16:47:44 ACST 2020
User: Stacey Dix
Spectrometer: MAYP113282
Scans to average: 1
Trigger mode: 0
Integration Time (sec): 1.000000E-1
Electric dark correction enabled: true
Boxcar width: 0
XAxis mode: Wavelengths
Number of Pixels in Spectrum: 2068
>>>>>Begin Spectral Data<<<<<
198.791	-366.67
199.266	-133.33
199.74	283.33
200.215	0
200.69	2.28
201.164	-23
201.639	-8.06
202.114	-2.08
202.588	-1.43
203.063	-5.04
203.537	8.79
204.012	7.41
204.486	-5.39
204.961	3.92
205.435	-11.86
205.909	-6.72
206.384	-16.04
206.858	-9.66
207.332	-1.05
207.807	-17.09
208.281	8.71
208.755	-7.65
209.229	-13.45
209.703	8.28
210.177	-11.36
210.651	-14.92
211.126	10.86
211.6	-9.43
212.074	-1.58
212.548	2.83
213.021	5.01
213.495	1.89
213.969	-2.83
214.443	-8.61
214.917	-7.71
215.391	0.35
215.864	-13.57
216.338	-5.71
216.812	-5.97
217.286	-20.27
217.759	2.37
218.233	3.57
218.706	2.98
219.18	-5.83
219.654	-2.7
220.127	-1.95
220.6	4.45
221.074	2.3
221.547	1.95
222.021	-3.55
222.494	-4.96
222.967	3.58
223.441	-6.8
223.914	9.85
224.387	2.4
224.86	4.27
225.334	-1.39
225.807	-0.28
226.28	-2.23
226.753	1.48
227.226	2.2
227.699	1.77
228.172	0.72
228.645	3.01
229.118	1.46
229.591	0.58
230.064	1.36
230.537	1.14
231.01	0.39
231.482	0.56
231.955	0.06
232.428	1.74
232.901	-0.37
233.373	1.94
233.846	1.27
234.319	1.92
234.791	-0.1
235.264	1.59
235.736	1.01
236.209	1.68
236.681	0.82
237.154	1.27
237.626	2.21
238.099	0.63
238.571	3.45
239.044	1.44
239.516	1.89
239.988	1.04
240.46	2.79
240.933	1.44
241.405	0.54
241.877	0.52
242.349	1.85
242.821	2.28
243.293	1.55
243.765	2.01
244.237	2.25
244.71	1.4
245.181	1.21
245.653	1.91
246.125	1.27
246.597	2.55
247.069	1.41
247.541	2.4
248.013	2
248.485	2.46
248.956	1.96
249.428	1.12
249.9	1.23
250.371	2.21
250.843	1.95
251.315	2.01
251.786	1.9
252.258	0.88
252.729	1.46
253.201	2.36
253.672	1.68
254.144	1.21
254.615	1.24
255.086	1.52
255.558	1.3
256.029	1.13
256.5	1.54
256.972	1.1
257.443	1.21
257.914	1.56
258.385	1.78
258.856	1.69
259.327	1.67
259.799	1.36
260.27	0.95
260.741	1.58
261.212	0.96
261.683	1.31
262.154	1.27
262.624	1.39
263.095	1.54
263.566	1.97
264.037	1.94
264.508	1.15
264.979	1.82
265.449	0.7
265.92	1.48
266.391	1.64
266.861	1.55
267.332	1.62
267.803	1.29
268.273	1.53
268.744	1.42
269.214	1.34
269.685	1.2
270.155	1.29
270.626	1.45
271.096	1.24
271.566	1.87
272.037	1.82
272.507	2.14
272.977	0.32
273.448	0.53
273.918	1.6
274.388	1.74
274.858	1.1
275.328	1.24
275.798	1.56
276.268	1.2
276.738	1.21
277.208	0.81
277.678	1.42
278.148	0.6
278.618	1.22
279.088	1.1
279.558	1.32
280.028	1.51
280.498	1.42
280.968	1.09
281.437	1.34
281.907	1.26
282.377	1.17
282.847	1.15
283.316	1.56
283.786	0.81
284.255	0.9
284.725	0.66
285.194	1.75
285.664	1.49
286.133	1.05
286.603	0.94
287.072	0.6
287.542	1.05
288.011	1.07
288.48	0.88
288.95	1.76
289.419	1.21
289.888	1.17
290.357	0.95
290.827	1.2
291.296	1.07
291.765	1.3
292.234	1.35
292.703	1.21
293.172	1.23
293.641	1.26
294.11	1.24
294.579	1.34
295.048	1.84
295.517	1.36
295.986	0.9
296.455	1.83
296.923	0.14
297.392	1.25
297.861	0.82
298.33	0.64
298.798	0.86
299.267	1.18
299.736	0.97
300.204	1.08
300.673	0.49
301.141	1.16
301.61	1.13
302.079	0.89
302.547	1.42
303.015	0.79
303.484	0.83
303.952	1.46
304.421	0.58
304.889	1.31
305.357	1.43
305.825	0.68
306.294	0.52
306.762	1.54
307.23	0.31
307.698	0.97
308.166	0.81
308.634	0.66
309.103	0.45
309.571	0.75
310.039	1.71
310.507	1.45
310.975	0.91
311.442	1.47
311.91	0.37
312.378	0.56
312.846	1.21
313.314	0.63
313.782	0.45
314.249	1.17
314.717	0.96
315.185	0.88
315.652	0.94
316.12	1.37
316.588	1.35
317.055	1.03
317.523	0.67
317.99	1.27
318.458	1.01
318.925	1.13
319.393	0.98
319.86	1.33
320.328	1.3
320.795	0.18
321.262	1.5
321.73	1.11
322.197	1.2
322.664	0.71
323.131	0.81
323.598	1.27
324.066	1.1
324.533	0.93
325	0.6
325.467	1.48
325.934	0.62
326.401	0.65
326.868	0.37
327.335	1.24
327.802	1.33
328.269	0.72
328.735	0.65
329.202	0.44
329.669	1.4
330.136	0.61
330.603	1.02
331.069	0.23
331.536	1.24
332.003	0.29
332.469	0.81
332.936	1.33
333.402	0.79
333.869	1.19
334.336	0.38
334.802	1.11
335.268	0.59
335.735	1.3
336.201	0.55
336.668	1.2
337.134	0.72
337.6	0.38
338.067	0.64
338.533	0.5
338.999	0.5
339.465	0.23
339.931	1.68
340.398	0.34
340.864	0.3
341.33	0.51
341.796	0.6
342.262	0.55
342.728	0.65
343.194	0.35
343.66	1.22
344.126	0.97
344.592	0.3
345.057	1.11
345.523	0.21
345.989	0.5
346.455	0.67
346.921	0.71
347.386	1.27
347.852	0.23
348.318	1.14
348.783	0.54
349.249	-0.13
349.714	0.2
350.18	0.9
350.645	0.2
351.111	0.43
351.576	1.03
352.042	0.81
352.507	0.58
352.973	0.51
353.438	0.7
353.903	0.61
354.369	0.31
354.834	1.21
355.299	1.29
355.764	0.61
356.229	0.68
356.695	0.62
357.16	0.25
357.625	1.04
358.09	0.19
358.555	1.07
359.02	0.61
359.485	0.5
359.95	0.26
360.415	0.6
360.879	0.84
361.344	0.08
361.809	0.43
362.274	0.61
362.739	0.05
363.203	0.53
363.668	1.04
364.133	0.37
364.597	0.94
365.062	0.46
365.527	0.21
365.991	0.27
366.456	0.67
366.92	-0.01
367.385	0.36
367.849	0.05
368.314	0.02
368.778	0.24
369.242	0.45
369.707	0.02
370.171	0.66
370.635	-0.39
371.1	0.49
371.564	0.58
372.028	0.46
372.492	0.68
372.956	0.21
373.42	0.54
373.884	0.95
374.348	0.87
374.812	0.23
375.276	0.76
375.74	0.69
376.204	0.87
376.668	0.39
377.132	0.94
377.596	-0.07
378.06	0.51
378.524	0.1
378.987	0.56
379.451	0.42
379.915	0.34
380.378	0.38
380.842	-0.04
381.306	0.75
381.769	0.33
382.233	0.45
382.696	-0.07
383.16	0.13
383.623	0.79
384.087	0.16
384.55	0.62
385.014	0.97
385.477	0.33
385.94	0.91
386.404	0.3
386.867	-0.55
387.33	0.67
387.793	0.81
388.256	0.64
388.72	0.97
389.183	0.17
389.646	0.46
390.109	0.22
390.572	0.46
391.035	0.12
391.498	1.13
391.961	0.79
392.424	0.8
392.887	0.38
393.35	0.22
393.812	0.18
394.275	0.19
394.738	0.41
395.201	0.96
395.664	0.29
396.126	0.07
396.589	0.44
397.052	0.07
397.514	0.3
397.977	-0.15
398.439	0.58
398.902	0.41
399.364	0.25
399.827	0.58
400.289	0.34
400.752	0.82
401.214	0.12
401.676	0.37
402.139	0.16
402.601	0.16
403.063	1
403.525	0.62
403.988	0.16
404.45	0.46
404.912	0.71
405.374	-0.43
405.836	1.19
406.298	0.3
406.76	0.74
407.222	0.74
407.684	0.05
408.146	0.43
408.608	0.83
409.07	0.67
409.532	0.09
409.994	-0.11
410.456	0.52
410.917	0.22
411.379	1.1
411.841	0.46
412.303	0.89
412.764	-0.13
413.226	0.85
413.687	0.35
414.149	0.23
414.611	0.59
415.072	0.19
415.534	0.39
415.995	-0.01
416.457	0.49
416.918	0.49
417.379	0.19
417.841	0.55
418.302	0.79
418.763	0.34
419.225	0.57
419.686	0.07
420.147	0.98
420.608	0.87
421.069	0.52
421.53	0.25
421.991	1.02
422.453	0.3
422.914	0.07
423.375	0.21
423.836	-0.07
424.297	0.34
424.757	0.02
425.218	0.82
425.679	0.15
426.14	0.36
426.601	0.93
427.062	1.45
427.522	-0.01
427.983	-0.26
428.444	0.77
428.904	-0.01
429.365	-0.15
429.826	0.42
430.286	0.29
430.747	0.45
431.207	0.45
431.668	0.52
432.128	1.49
432.589	0.24
433.049	0.28
433.509	-0.02
433.97	0.13
434.43	0.62
434.89	0.17
435.351	1.1
435.811	1.33
436.271	0.29
436.731	0.37
437.191	1.15
437.651	-0.35
438.112	-0.39
438.572	-0.94
439.032	-0.56
439.492	1.09
439.952	0.36
440.412	0.51
440.871	0.07
441.331	0.51
441.791	-0.06
442.251	1.44
442.711	0.47
443.171	1.67
443.63	0.11
444.09	-1.05
444.55	0.44
445.009	-0.59
445.469	0.83
445.929	0.15
446.388	0.67
446.848	0.65
447.307	-0.09
447.767	0.42
448.226	0.26
448.686	-0.01
449.145	0.03
449.604	1.06
450.064	0.65
450.523	0.66
450.982	0.67
451.442	-0.24
451.901	0.22
452.36	-0.01
452.819	0.23
453.278	0.88
453.737	0.67
454.197	-0.01
454.656	-0.45
455.115	-0.29
455.574	0.23
456.033	0.59
456.492	-0.46
456.95	0.93
457.409	-0.22
457.868	0.75
458.327	-0.22
458.786	-0.18
459.245	-0.26
459.703	-0.89
460.162	0.63
460.621	-0.49
461.079	-0.1
461.538	-0.23
461.997	0.51
462.455	0.82
462.914	-0.96
463.372	1.5
463.831	0.3
464.289	-0.46
464.748	-0.29
465.206	0.35
465.664	0.26
466.123	0.75
466.581	-0.78
467.039	0.4
467.497	-0.29
467.956	-0.34
468.414	0.13
468.872	0.17
469.33	0.42
469.788	-0.02
470.246	0.27
470.704	0.56
471.162	-0.86
471.62	0.08
472.078	0.18
472.536	0.78
472.994	0.28
473.452	-0.21
473.91	0.92
474.368	-0.27
474.826	0.32
475.283	-0.36
475.741	-0.42
476.199	-0.37
476.656	0.53
477.114	1.01
477.572	-0.12
478.029	0.23
478.487	-0.16
478.944	0.03
479.402	0.89
479.859	0.93
480.317	-0.94
480.774	1.11
481.232	0.41
481.689	-0.07
482.146	1.4
482.604	-1.04
483.061	-0.42
483.518	0.18
483.975	1.13
484.433	-0.42
484.89	0.03
485.347	0.69
485.804	-0.27
486.261	-1.28
486.718	0.88
487.175	0.34
487.632	0.23
488.089	-1.21
488.546	0.39
489.003	-0.48
489.46	0.76
489.917	0.34
490.373	0.8
490.83	-0.78
491.287	-0.07
491.744	0.14
492.2	-1.44
492.657	0.56
493.114	0.4
493.57	-1.13
494.027	0.39
494.484	0.5
494.94	-0.22
495.397	0.09
495.853	0.03
496.31	0.33
496.766	0.23
497.222	0.77
497.679	-0.81
498.135	0.03
498.591	-0.6
499.048	0.23
499.504	0.08
499.96	-0.06
500.416	1.53
500.872	0.22
501.329	1.48
501.785	-0.43
502.241	-0.25
502.697	0.08
503.153	-0.43
503.609	0.52
504.065	-0.86
504.521	0.03
504.977	-0.49
505.432	-0.1
505.888	1.07
506.344	-0.39
506.8	0.94
507.256	0.81
507.711	0.4
508.167	0.15
508.623	0.59
509.078	0.34
509.534	-0.29
509.99	0.73
510.445	0.14
510.901	-0.17
511.356	0.37
511.812	1.39
512.267	-0.09
512.722	0.13
513.178	0.24
513.633	0.74
514.089	-0.12
514.544	-0.19
514.999	0.24
515.454	-0.01
515.91	0.34
516.365	0.13
516.82	0.65
517.275	0.54
517.73	-0.19
518.185	0.09
518.64	0.69
519.095	0.57
519.55	-0.25
520.005	0.23
520.46	0.94
520.915	-0.39
521.37	-0.12
521.825	-0.82
522.28	0.61
522.734	-0.35
523.189	0.53
523.644	0.16
524.099	0.43
524.553	0.57
525.008	0.48
525.462	-0.01
525.917	0.83
526.372	0.02
526.826	0.38
527.281	-0.15
527.735	0.1
528.19	-0.69
528.644	0.35
529.098	0.89
529.553	1.01
530.007	1.23
530.461	0.02
530.916	0.6
531.37	1.03
531.824	0.21
532.278	-0.39
532.732	0.32
533.186	1.31
533.641	0.03
534.095	0.18
534.549	1.11
535.003	0.41
535.457	0.41
535.911	-0.52
536.365	0.33
536.818	0.19
537.272	-0.4
537.726	0.62
538.18	0.22
538.634	-0.01
539.087	0.45
539.541	1.13
539.995	-0.32
540.449	1.32
540.902	0.26
541.356	0.03
541.809	-0.97
542.263	-0.98
542.716	0.18
543.17	-0.84
543.623	0.33
544.077	0.07
544.53	0.03
544.984	0.83
545.437	-1.05
545.89	-0.47
546.344	0.18
546.797	0.06
547.25	0.25
547.703	0.03
548.157	0.17
548.61	-0.88
549.063	1.69
549.516	-0.45
549.969	0.13
550.422	0.59
550.875	-0.63
551.328	-0.36
551.781	-0.18
552.234	-0.43
552.687	0.23
553.14	0.06
553.592	0.35
554.045	0.15
554.498	-0.57
554.951	0.97
555.404	0.63
555.856	-0.11
556.309	0.24
556.762	-0.64
557.214	0.79
557.667	0.3
558.119	0.59
558.572	-0.52
559.024	0.49
559.477	0.93
559.929	1.07
560.382	0.16
560.834	0.7
561.286	0.13
561.739	-0.29
562.191	0.63
562.643	0.68
563.095	0.51
563.548	0.07
564	0.66
564.452	0.58
564.904	1.1
565.356	-0.01
565.808	0.52
566.26	0.43
566.712	0.71
567.164	-0.01
567.616	0.27
568.068	1.04
568.52	0.82
568.972	0.96
569.424	0.56
569.876	0.84
570.327	0.57
570.779	0.48
571.231	0.64
571.682	0.72
572.134	-0.17
572.586	0.9
573.037	0.11
573.489	0.45
573.941	0.73
574.392	0.46
574.844	0.7
575.295	0.2
575.746	1.32
576.198	0.39
576.649	0.55
577.101	0.63
577.552	0.37
578.003	0.32
578.454	1.05
578.906	0.83
579.357	0.11
579.808	0.72
580.259	0.31
580.71	0.57
581.161	0.53
581.612	0.47
582.064	1
582.515	0.72
582.965	1.14
583.416	0.68
583.867	0.6
584.318	0.38
584.769	0.48
585.22	0.51
585.671	0.38
586.122	0.52
586.572	-0.13
587.023	0.09
587.474	0.43
587.924	-0.17
588.375	0.41
588.826	0.11
589.276	0.46
589.727	0.57
590.177	0.64
590.628	0.5
591.078	0.34
591.529	0.3
591.979	0.48
592.429	1.03
592.88	0.79
593.33	0.3
593.78	0.95
594.231	0.53
594.681	0.46
595.131	0.64
595.581	0.85
596.031	0.5
596.481	0.87
596.932	0.8
597.382	1.38
597.832	0.62
598.282	0.73
598.732	0.8
599.182	0.27
599.632	0.69
600.081	0.15
600.531	0.72
600.981	0.77
601.431	0.96
601.881	0.45
602.33	0.24
602.78	0.97
603.23	0.59
603.679	0.46
604.129	0.59
604.579	0.68
605.028	-0.03
605.478	0.58
605.927	0.53
606.377	0.76
606.826	0.41
607.276	0.29
607.725	0.99
608.175	0.59
608.624	1.29
609.073	0.67
609.522	0.55
609.972	1.02
610.421	0.1
610.87	0.73
611.319	0.69
611.768	0.64
612.218	0.73
612.667	0.73
613.116	0.9
613.565	1.04
614.014	0.72
614.463	0.65
614.912	0.5
615.361	0.87
615.81	1.19
616.258	0.71
616.707	0.48
617.156	1.04
617.605	1.04
618.054	0.66
618.502	1.54
618.951	0.89
619.4	1.31
619.848	0.61
620.297	0.89
620.745	0.82
621.194	0.74
621.642	0.43
622.091	0.7
622.539	0.99
622.988	0.94
623.436	0.83
623.885	1.19
624.333	0.43
624.781	0.72
625.23	1.1
625.678	0.66
626.126	0.89
626.574	1
627.022	0.8
627.471	0.67
627.919	0.42
628.367	1.04
628.815	0.77
629.263	0.82
629.711	0.86
630.159	0.72
630.607	0.95
631.055	0.86
631.503	1.19
631.95	0.99
632.398	0.84
632.846	1.02
633.294	1.27
633.742	1.02
634.189	0.76
634.637	1
635.085	1.17
635.532	0.86
635.98	1.07
636.427	0.96
636.875	1.32
637.323	0.63
637.77	1.16
638.217	0.92
638.665	0.72
639.112	0.92
639.56	1.23
640.007	0.67
640.454	0.89
640.902	1.2
641.349	0.79
641.796	0.78
642.243	0.68
642.69	1.05
643.138	0.85
643.585	1.09
644.032	0.73
644.479	1.13
644.926	0.84
645.373	0.95
645.82	0.91
646.267	1.08
646.714	1.17
647.161	0.77
647.607	1.09
648.054	1.01
648.501	0.7
648.948	0.77
649.395	1.24
649.841	0.39
650.288	1
650.735	1.23
651.181	1.18
651.628	1.32
652.075	1.14
652.521	0.92
652.968	1.12
653.414	0.79
653.861	0.92
654.307	1.21
654.753	1.22
655.2	1.13
655.646	1.21
656.092	0.78
656.539	0.95
656.985	0.97
657.431	1.3
657.877	1.14
658.324	1.07
658.77	1.01
659.216	1.3
659.662	1.04
660.108	0.86
660.554	1.29
661	1.09
661.446	0.97
661.892	0.93
662.338	0.99
662.784	1.36
663.23	1
663.675	0.67
664.121	1.1
664.567	1.3
665.013	1.23
665.458	1.24
665.904	1.03
666.35	1.01
666.795	1.15
667.241	1.53
667.687	1.4
668.132	1.12
668.578	0.98
669.023	1.28
669.469	0.84
669.914	1.09
670.359	1.02
670.805	1
671.25	1.19
671.695	1.2
672.141	0.93
672.586	1.35
673.031	1.57
673.476	1.2
673.922	1.36
674.367	0.98
674.812	1.09
675.257	1.27
675.702	0.85
676.147	0.88
676.592	0.98
677.037	1.32
677.482	1.29
677.927	1.22
678.372	1.38
678.817	1.23
679.261	1.24
679.706	1.07
680.151	1.48
680.596	1.04
681.04	1.26
681.485	1.37
681.93	1.2
682.374	1.22
682.819	1.13
683.264	1.18
683.708	1.18
684.153	1.31
684.597	1.21
685.042	1.24
685.486	1.31
685.93	1.28
686.375	1.04
686.819	1.54
687.263	1.4
687.708	1.52
688.152	1.15
688.596	1.27
689.04	1.02
689.485	1.32
689.929	1.44
690.373	1.17
690.817	1.2
691.261	1.31
691.705	1.47
692.149	1.06
692.593	1.36
693.037	1.36
693.481	1.62
693.925	1.18
694.369	1.4
694.812	1.31
695.256	1.17
695.7	1.22
696.144	1.34
696.587	1.39
697.031	1.43
697.475	1.22
697.918	1.5
698.362	1.07
698.806	1.6
699.249	1.4
699.693	1.41
700.136	1.31
700.58	1.21
701.023	1.18
701.466	1.5
701.91	1.35
702.353	1.42
702.796	1.42
703.24	1.4
703.683	1.45
704.126	1.45
704.569	1.46
705.013	1.32
705.456	1.51
705.899	1.53
706.342	1.57
706.785	1.49
707.228	1.26
707.671	1.32
708.114	1.36
708.557	1.39
709	1.16
709.443	1.33
709.886	1.19
710.328	1.49
710.771	1.2
711.214	1.55
711.657	1.64
712.099	1.42
712.542	1.54
712.985	1.3
713.427	1.33
713.87	1.56
714.313	1.65
714.755	1.56
715.198	1.61
715.64	1.71
716.083	1.74
716.525	1.29
716.967	1.55
717.41	1.41
717.852	1.54
718.295	1.52
718.737	1.29
719.179	1.45
719.621	1.56
720.063	1.49
720.506	1.54
720.948	1.62
721.39	1.62
721.832	1.73
722.274	1.61
722.716	1.76
723.158	1.68
723.6	1.55
724.042	1.36
724.484	1.57
724.926	1.57
725.368	1.61
725.81	1.74
726.251	1.91
726.693	1.61
727.135	1.62
727.577	1.99
728.018	1.52
728.46	1.21
728.902	1.53
729.343	1.7
729.785	1.53
730.226	1.22
730.668	1.62
731.109	1.5
731.551	1.65
731.992	1.76
732.434	1.81
732.875	1.57
733.316	1.45
733.758	1.84
734.199	1.46
734.64	1.65
735.081	1.61
735.523	1.54
735.964	1.72
736.405	1.77
736.846	1.44
737.287	1.62
737.728	1.8
738.169	1.99
738.61	1.58
739.051	1.72
739.492	1.64
739.933	1.92
740.374	1.96
740.815	1.85
741.256	1.56
741.696	1.8
742.137	1.68
742.578	1.74
743.019	1.56
743.459	1.68
743.9	1.66
744.341	1.91
744.781	1.75
745.222	1.74
745.662	2.1
746.103	1.61
746.543	1.37
746.984	1.74
747.424	1.99
747.865	1.93
748.305	1.76
748.745	1.7
749.186	1.83
749.626	1.85
750.066	1.83
750.506	1.86
750.947	1.65
751.387	1.79
751.827	1.68
752.267	1.91
752.707	1.68
753.147	1.89
753.587	1.89
754.027	1.67
754.467	1.79
754.907	1.81
755.347	1.82
755.787	1.72
756.227	2.18
756.667	1.84
757.107	1.97
757.546	1.77
757.986	1.65
758.426	1.85
758.865	2.02
759.305	1.86
759.745	1.91
760.184	1.99
760.624	1.93
761.063	2.1
761.503	1.93
761.943	2.22
762.382	1.99
762.821	1.99
763.261	2.12
763.7	2.06
764.14	2.11
764.579	2.3
765.018	1.81
765.457	1.87
765.897	2.09
766.336	1.87
766.775	2.28
767.214	1.97
767.653	2.1
768.092	2.06
768.531	2.06
768.97	1.94
769.409	2.2
769.848	2.16
770.287	2.18
770.726	2.18
771.165	2.11
771.604	2.08
772.043	2.08
772.482	1.98
772.92	1.9
773.359	2.19
773.798	2.15
774.237	2.17
774.675	2.38
775.114	2.21
775.553	2.08
775.991	2.16
776.43	2.16
776.868	2.07
777.307	2.31
777.745	2.15
778.184	2.29
778.622	2.19
779.06	2.35
779.499	2.25
779.937	2.21
780.375	2.23
780.814	2.62
781.252	2.28
781.69	2.27
782.128	2.19
782.566	2.29
783.004	2.06
783.443	2.26
783.881	2.3
784.319	2.24
784.757	2.46
785.195	2.31
785.633	2.23
786.071	2.45
786.508	2.23
786.946	2.22
787.384	2.31
787.822	2.27
788.26	2.33
788.697	2.48
789.135	2.36
789.573	2.45
790.011	2.39
790.448	2.4
790.886	2.46
791.323	2.26
791.761	2.25
792.198	2.42
792.636	2.27
793.073	2.57
793.511	2.42
793.948	2.3
794.386	2.37
794.823	2.63
795.26	2.32
795.698	2.63
796.135	2.75
796.572	2.52
797.009	2.42
797.446	2.68
797.884	2.64
798.321	2.5
798.758	2.56
799.195	2.6
799.632	2.54
800.069	2.58
800.506	2.68
800.943	2.61
801.38	2.6
801.817	2.6
802.254	2.63
802.69	2.6
803.127	2.55
803.564	2.76
804.001	2.72
804.438	2.59
804.874	2.48
805.311	2.63
805.748	2.67
806.184	2.74
806.621	2.59
807.057	2.77
807.494	2.82
807.93	2.65
808.367	2.78
808.803	2.55
809.24	2.79
809.676	2.75
810.112	2.79
810.549	2.69
810.985	2.78
811.421	2.76
811.857	3.12
812.294	2.8
812.73	2.93
813.166	2.66
813.602	2.88
814.038	2.9
814.474	2.63
814.91	2.79
815.346	2.89
815.782	2.74
816.218	2.74
816.654	3.02
817.09	2.96
817.526	3.1
817.962	3.06
818.398	2.86
818.833	3.04
819.269	2.9
819.705	2.82
820.141	3.01
820.576	2.91
821.012	3.21
821.447	2.88
821.883	3.11
822.319	2.94
822.754	3.36
823.19	3.05
823.625	2.89
824.061	2.88
824.496	3.07
824.931	3.32
825.367	2.94
825.802	3.11
826.237	3.07
826.673	2.99
827.108	3.12
827.543	3.32
827.978	3.06
828.413	2.95
828.849	2.91
829.284	3.17
829.719	3.12
830.154	3.11
830.589	3.33
831.024	3.18
831.459	3.29
831.894	3.08
832.329	3.14
832.763	3.35
833.198	3.19
833.633	3.2
834.068	3.31
834.503	3.36
834.937	3.41
835.372	3.42
835.807	3.3
836.241	3.28
836.676	3.44
837.111	3.25
837.545	3.18
837.98	3.43
838.414	3.47
838.849	3.58
839.283	3.26
839.717	3.45
840.152	3.26
840.586	3.37
841.021	3.41
841.455	3.34
841.889	3.46
842.323	3.61
842.758	3.53
843.192	3.4
843.626	3.27
844.06	3.64
844.494	3.43
844.928	3.7
845.362	3.67
845.796	3.56
846.23	3.65
846.664	3.47
847.098	3.66
847.532	3.57
847.966	3.47
848.4	3.51
848.834	3.73
849.267	3.46
849.701	3.43
850.135	3.73
850.569	3.76
851.002	3.81
851.436	3.63
851.87	3.52
852.303	3.63
852.737	3.71
853.17	3.75
853.604	3.57
854.037	3.8
854.471	3.71
854.904	3.69
855.337	3.67
855.771	3.88
856.204	3.77
856.637	3.85
857.071	4.08
857.504	3.9
857.937	3.73
858.37	3.76
858.804	3.76
859.237	3.88
859.67	3.9
860.103	3.8
860.536	3.81
860.969	3.91
861.402	3.75
861.835	4.06
862.268	3.98
862.701	3.94
863.134	3.85
863.566	3.99
863.999	4.01
864.432	4.03
864.865	3.85
865.298	4.08
865.73	4.04
866.163	4.05
866.596	4.01
867.028	4.21
867.461	4.16
867.893	4.05
868.326	4.18
868.758	3.98
869.191	4.3
869.623	4.23
870.056	4.29
870.488	4.26
870.92	4.2
871.353	4.09
871.785	4.3
872.217	3.97
872.65	4.3
873.082	4.26
873.514	4.24
873.946	4.16
874.378	4.25
874.81	4.13
875.243	4.23
875.675	4.38
876.107	4.14
876.539	4.13
876.971	4.41
877.403	4.42
877.834	4.24
878.266	4.43
878.698	4.37
879.13	4.39
879.562	4.48
879.994	4.53
880.425	4.37
880.857	4.62
881.289	4.56
881.72	4.48
882.152	4.4
882.584	4.48
883.015	4.57
883.447	4.49
883.878	4.57
884.31	4.58
884.741	4.47
885.173	4.66
885.604	4.68
886.035	4.6
886.467	4.53
886.898	4.74
887.329	4.69
887.76	4.68
888.192	4.52
888.623	4.58
889.054	4.83
889.485	4.9
889.916	4.54
890.347	4.77
890.778	4.6
891.209	4.77
891.64	4.92
892.071	4.85
892.502	4.72
892.933	4.82
893.364	4.82
893.795	4.88
894.226	4.8
894.657	4.9
895.087	4.92
895.518	4.99
895.949	5.14
896.38	4.94
896.81	4.95
897.241	5.02
897.671	5.17
898.102	5.08
898.533	4.98
898.963	5.05
899.394	4.93
899.824	5.16
900.254	5.13
900.685	5.2
901.115	5.06
901.546	5.09
901.976	5.12
902.406	5.08
902.836	5.08
903.267	5.02
903.697	5.05
904.127	5.25
904.557	5.12
904.987	5.18
905.417	5.06
905.847	5.32
906.277	5.33
906.707	5.11
907.137	5.15
907.567	5.32
907.997	5.32
908.427	5.33
908.857	5.42
909.287	5.36
909.717	5.32
910.146	5.49
910.576	5.48
911.006	5.33
911.436	5.57
911.865	5.41
912.295	5.52
912.724	5.54
913.154	5.69
913.584	5.42
914.013	5.53
914.443	5.57
914.872	5.54
915.302	5.58
915.731	5.77
916.16	5.61
916.59	5.58
917.019	5.57
917.448	5.59
917.878	5.84
918.307	5.62
918.736	5.61
919.165	5.64
919.594	5.64
920.023	5.81
920.452	5.77
920.882	5.79
921.311	5.76
921.74	5.86
922.169	5.84
922.597	5.99
923.026	5.62
923.455	6.1
923.884	5.78
924.313	5.87
924.742	5.94
925.171	5.88
925.599	6.02
926.028	5.86
926.457	5.91
926.885	6.1
927.314	5.95
927.743	6.08
928.171	6.08
928.6	5.92
929.028	6.06
929.457	6.05
929.885	5.85
930.314	6.08
930.742	6.14
931.17	6.09
931.599	6.18
932.027	6.07
932.455	6.14
932.884	6.19
933.312	5.96
933.74	6.3
934.168	6.17
934.596	6.24
935.025	6.24
935.453	6.24
935.881	6.25
936.309	6.14
936.737	6.08
937.165	6.18
937.593	6.32
938.021	6.26
938.449	6.29
938.876	6.39
939.304	6.51
939.732	6.22
940.16	6.11
940.588	6.24
941.015	6.53
941.443	6.43
941.871	6.69
942.298	6.28
942.726	6.43
943.154	6.23
943.581	6.41
944.009	6.36
944.436	6.67
944.864	6.36
945.291	6.42
945.718	6.46
946.146	6.59
946.573	6.5
947.001	6.67
947.428	6.53
947.855	6.52
948.282	6.56
948.71	6.55
949.137	6.61
949.564	6.82
949.991	6.85
950.418	7.07
950.845	6.85
951.272	6.63
951.699	6.67
952.126	7.15
952.553	6.65
952.98	6.95
953.407	6.93
953.834	6.74
954.261	6.91
954.688	6.99
955.114	6.95
955.541	7.01
955.968	6.88
956.395	6.98
956.821	7
957.248	7.16
957.674	7.08
958.101	7.07
958.528	7.14
958.954	7.02
959.381	7.07
959.807	7.2
960.234	7.18
960.66	7.18
961.086	7.29
961.513	7.29
961.939	7.31
962.365	7.18
962.792	7.51
963.218	7.24
963.644	7.18
964.07	7.32
964.496	7.31
964.923	7.37
965.349	7.5
965.775	7.3
966.201	7.33
966.627	7.21
967.053	7.39
967.479	7.37
967.905	7.49
968.331	7.52
968.756	7.53
969.182	7.51
969.608	7.4
970.034	7.55
970.46	7.51
970.885	7.56
971.311	7.51
971.737	7.55
972.162	7.4
972.588	7.58
973.014	7.74
973.439	7.48
973.865	7.66
974.29	7.59
974.716	7.65
975.141	7.75
975.567	7.71
975.992	7.73
976.417	7.77
976.843	7.75
977.268	7.78
977.693	7.65
978.119	7.95
978.544	7.82
978.969	7.9
979.394	7.93
979.819	7.77
980.244	7.99
980.669	7.93
981.095	8.1
981.52	8.02
981.945	8.05
982.369	8.1
982.794	8.07
983.219	8.03
983.644	8
984.069	8.2
984.494	8.16
984.919	8.29
985.343	8.17
985.768	7.98
986.193	8.29
986.618	8.18
987.042	8.27
987.467	8.19
987.891	8.27
988.316	8.31
988.741	8.33
989.165	8.2
989.59	8.37
990.014	8.34
990.438	8.35
990.863	8.36
991.287	8.22
991.712	8.37
992.136	8.54
992.56	8.35
992.984	8.47
993.409	8.49
993.833	8.54
994.257	8.46
994.681	8.63
995.105	8.55
995.529	8.54
995.953	8.62
996.377	8.53
996.801	8.6
997.225	8.71
997.649	8.67
998.073	8.61
998.497	8.62
998.921	8.65
999.345	8.51
999.769	8.77
1000.192	8.73
1000.616	8.73
1001.04	8.98
1001.464	8.86
1001.887	8.73
1002.311	8.75
1002.734	8.93
1003.158	8.84
1003.582	8.76
1004.005	8.97
1004.429	9.01
1004.852	8.69
1005.275	9.11
1005.699	9.04
1006.122	9.09
1006.546	9.01
1006.969	8.9
1007.392	9.15
1007.815	9.12
1008.239	9.01
1008.662	9.07
1009.085	9.19
1009.508	9.04
1009.931	9.06
1010.354	9.02
1010.778	9.11
1011.201	9.26
1011.624	9.14
1012.047	9.11
1012.469	9.24
1012.892	9.39
1013.315	9.21
1013.738	9.48
1014.161	9.29
1014.584	9.39
1015.007	9.42
1015.429	9.6
1015.852	9.21
1016.275	9.37
1016.697	9.33
1017.12	9.56
1017.543	9.58
1017.965	9.41
1018.388	9.58
1018.81	9.26
1019.233	9.48
1019.655	9.58
1020.078	9.71
1020.5	9.61
1020.922	9.58
1021.345	9.59
1021.767	9.5
1022.189	9.63
1022.612	9.71
1023.034	9.62
1023.456	9.8
1023.878	9.82
1024.301	9.86
1024.723	9.47
1025.145	9.83
1025.567	9.72
1025.989	10.03
1026.411	9.66
1026.833	9.83
1027.255	9.94
1027.677	9.81
1028.099	9.88
1028.52	10.04
1028.942	9.81
1029.364	9.9
1029.786	10.23
1030.208	9.99
1030.629	9.91
1031.051	10.02
1031.473	9.97
1031.894	10.18
1032.316	10.01
1032.738	10.09
1033.159	9.96
1033.581	10.03
1034.002	9.88
1034.424	10.52
1034.845	10.29
1035.267	10.09
1035.688	10.25
1036.109	10.31
1036.531	10.2
1036.952	10.18
1037.373	10.43
1037.794	9.93
1038.216	10.27
1038.637	10.29
1039.058	10.38
1039.479	10.39
1039.9	10.37
1040.321	10.25
1040.742	10.38
1041.163	10.45
1041.584	10.14
1042.005	10.67
1042.426	10.58
1042.847	10.31
1043.268	10.69
1043.689	10.72
1044.11	10.55
1044.53	10.47
1044.951	10.51
1045.372	10.47
1045.793	10.33
1046.213	10.77
1046.634	10.28
1047.055	10.81
1047.475	10.58
1047.896	10.69
1048.316	10.8
1048.737	10.65
1049.157	10.58
1049.578	10.71
1049.998	10.8
1050.419	10.41
1050.839	10.68
1051.259	10.8
1051.68	10.6
1052.1	11.03
1052.52	10.64
1052.94	11.14
1053.361	10.87
1053.781	10.97
1054.201	10.76
1054.621	11.11
1055.041	10.74
1055.461	11.06
1055.881	11
1056.301	11.16
1056.721	11.19
1057.141	11.04
1057.561	10.83
1057.981	11.09
1058.401	10.98
1058.82	11.26
1059.24	11.16
1059.66	11.12
1060.08	10.41
1060.499	10.77
1060.919	10.93
1061.339	11.21
1061.758	11.38
1062.178	11.4
1062.598	11.33
1063.017	11.54
1063.437	11.28
1063.856	11.02
1064.276	11.45
1064.695	11.21
1065.114	10.97
1065.534	10.47
1065.953	11.04
1066.372	11.24
1066.792	11.4
1067.211	11.65
1067.63	11.29
1068.049	10.92
1068.469	11.35
1068.888	11.51
1069.307	11.4
1069.726	11.39
1070.145	11.54
1070.564	11.35
1070.983	11.31
1071.402	11.52
1071.821	11.73
1072.24	11.3
1072.659	11.34
1073.078	11.48
1073.496	11.68
1073.915	11.67
1074.334	11.69
1074.753	11.4
1075.171	11.28
1075.59	11.47
1076.009	11.46
1076.427	11.79
1076.846	11.1
1077.265	11.6
1077.683	11.33
1078.102	11.48
1078.52	11.19
1078.939	11.81
1079.357	11.67
1079.776	11.46
1080.194	11.73
1080.612	12.71
1081.031	12.01
1081.449	11.75
1081.867	9.57
1082.285	11.54
1082.704	11.26
1083.122	11.78
1083.54	12.19
1083.958	11.37
1084.376	11.49
1084.794	11.28
1085.212	11.46
1085.63	11.25
1086.048	12.48
1086.466	11.98
1086.884	11.27
1087.302	11.52
1087.72	11.75
1088.138	12.56
1088.555	11.44
1088.973	12.4
1089.391	11.44
1089.809	11.46
1090.226	12.42
1090.644	12.38
1091.062	11.47
1091.479	12.26
1091.897	12.16
1092.314	11.47
1092.732	12.06
1093.15	12.81
1093.567	12.02
1093.984	12.05
1094.402	11.98
1094.819	12.44
1095.237	12.6
1095.654	11.75
1096.071	11.66
1096.488	10.87
1096.906	12.09
1097.323	11.31
1097.74	12.75
1098.157	11.9
1098.574	12.18
1098.991	12.03
1099.409	11.22
1099.826	12.65
1100.243	12.02
1100.66	12.75
1101.077	11.65
1101.494	11.36
1101.91	12.56
1102.327	12.25
1102.744	11.9
1103.161	11.48
1103.578	11.83
1103.994	11.47
1104.411	12.23
1104.828	13.24
1105.245	12.43
1105.661	12.35
1106.078	12.88
1106.494	11.15
1106.911	11.28
1107.328	11.3
1107.744	12.54
1108.161	10.44
1108.577	11.49
1108.993	10.83
1109.41	12.91
1109.826	12.03
1110.242	12.45
1110.659	12.91
1111.075	10.3
1111.491	11.1
1111.908	11.06
1112.324	13.87
1112.74	-4.85
1113.156	9.58
1113.572	10.42
1113.988	11.87
1114.404	10.15
1114.82	10.4
1115.236	9.94
1115.652	10.95
1116.068	10.47
1116.484	14.03
1116.9	11.3
1117.316	9.74
1117.732	2.56
1118.147	-38.89
1118.563	16.67
1118.979	-33.33
