Data from JCR0019_BlackVentral_Reflection_00001.txt Node
Date: Thu Jul 23 16:47:42 ACST 2020
User: Stacey Dix
Spectrometer: MAYP113282
Scans to average: 1
Trigger mode: 0
Integration Time (sec): 1.000000E-1
Electric dark correction enabled: true
Boxcar width: 0
XAxis mode: Wavelengths
Number of Pixels in Spectrum: 2068
>>>>>Begin Spectral Data<<<<<
198.791	-300
199.266	200
199.74	0
200.215	0
200.69	-23.29
201.164	-21.13
201.639	-9.89
202.114	-1.79
202.588	-4.3
203.063	9.3
203.537	-16.36
204.012	8.55
204.486	-13.13
204.961	-5.04
205.435	-7.69
205.909	7.26
206.384	-20.3
206.858	-11.21
207.332	4.72
207.807	-9.24
208.281	8.96
208.755	-7.41
209.229	-12.28
209.703	4.58
210.177	-18.52
210.651	-12.59
211.126	-9.63
211.6	-7.24
212.074	-2.03
212.548	-4.24
213.021	0
213.495	0
213.969	-9.8
214.443	-1.69
214.917	1.73
215.391	3.65
215.864	-3.49
216.338	-4.97
216.812	5.83
217.286	-7.04
217.759	7.95
218.233	-4.94
218.706	6.7
219.18	-5.69
219.654	2.13
220.127	0.36
220.6	-1.53
221.074	1.03
221.547	2.92
222.021	-3.13
222.494	-6.15
222.967	1.31
223.441	-8.38
223.914	7.09
224.387	-3.48
224.86	5.72
225.334	1.1
225.807	1.48
226.28	1.63
226.753	-1.02
227.226	3.39
227.699	2.87
228.172	1.39
228.645	2.08
229.118	3
229.591	1.49
230.064	1.75
230.537	1.3
231.01	1.68
231.482	2.16
231.955	-0.66
232.428	1.24
232.901	-0.17
233.373	2.46
233.846	0.54
234.319	2.67
234.791	1.53
235.264	1.01
235.736	0.84
236.209	1.7
236.681	1.01
237.154	1.82
237.626	2.52
238.099	1.3
238.571	2.63
239.044	2.11
239.516	2.39
239.988	1.2
240.46	2.94
240.933	2.26
241.405	1.3
241.877	1.44
242.349	2.36
242.821	1.38
243.293	2.35
243.765	1.75
244.237	1.81
244.71	1.98
245.181	2.17
245.653	1.54
246.125	2.25
246.597	1.35
247.069	1.57
247.541	3.14
248.013	2.67
248.485	2.11
248.956	2.24
249.428	1.51
249.9	1.85
250.371	2.07
250.843	1.6
251.315	1.32
251.786	1.91
252.258	1.49
252.729	1.78
253.201	2.05
253.672	1.3
254.144	1.78
254.615	0.77
255.086	1.53
255.558	1.18
256.029	1.39
256.5	1.78
256.972	1.54
257.443	1.78
257.914	2.19
258.385	2.24
258.856	1.92
259.327	1.53
259.799	1.29
260.27	1.58
260.741	1.54
261.212	1.45
261.683	1.26
262.154	2
262.624	1.55
263.095	1.6
263.566	2.29
264.037	1.22
264.508	0.65
264.979	1.85
265.449	1.38
265.92	1.36
266.391	1.49
266.861	0.83
267.332	1.39
267.803	1.11
268.273	1.74
268.744	0.91
269.214	0.93
269.685	1.82
270.155	0.77
270.626	1.85
271.096	1.38
271.566	1.75
272.037	1.97
272.507	2.37
272.977	0.36
273.448	1.2
273.918	1.5
274.388	1.75
274.858	0.96
275.328	1.29
275.798	1.2
276.268	1.66
276.738	1.11
277.208	1.34
277.678	1.09
278.148	2.01
278.618	1.12
279.088	0.67
279.558	1.26
280.028	1.41
280.498	0.91
280.968	1
281.437	1.71
281.907	1.5
282.377	1.08
282.847	1.07
283.316	1.33
283.786	0.67
284.255	1.56
284.725	1.29
285.194	1.84
285.664	1.53
286.133	0.73
286.603	1.17
287.072	0.98
287.542	1.32
288.011	1.64
288.48	0.4
288.95	1.27
289.419	1.22
289.888	0.75
290.357	1.58
290.827	0.96
291.296	0.99
291.765	1.68
292.234	1.21
292.703	1.05
293.172	0.87
293.641	0.49
294.11	1.51
294.579	1.24
295.048	1.26
295.517	1.28
295.986	0.82
296.455	1.4
296.923	0.69
297.392	1.07
297.861	0.89
298.33	0.99
298.798	1.46
299.267	1
299.736	0.55
300.204	0.47
300.673	1.23
301.141	0.96
301.61	1.2
302.079	0.12
302.547	1.73
303.015	0.58
303.484	1.24
303.952	1.77
304.421	0.37
304.889	0.89
305.357	1.23
305.825	0.5
306.294	0.62
306.762	1.84
307.23	0.7
307.698	0.95
308.166	0.6
308.634	1.3
309.103	0.56
309.571	1.2
310.039	0.96
310.507	1.37
310.975	0.74
311.442	1.65
311.91	0.75
312.378	1.22
312.846	1.08
313.314	0.93
313.782	0.45
314.249	1.29
314.717	0.92
315.185	0.95
315.652	0.83
316.12	1.29
316.588	1.24
317.055	0.68
317.523	0.56
317.99	1.17
318.458	0.54
318.925	0.48
319.393	0.93
319.86	2.01
320.328	1.75
320.795	0.25
321.262	1.57
321.73	0.97
322.197	0.7
322.664	0.47
323.131	1.1
323.598	1.22
324.066	1.11
324.533	0.64
325	0.55
325.467	0.85
325.934	0.48
326.401	0.81
326.868	0.47
327.335	1.39
327.802	0.76
328.269	0.38
328.735	0.32
329.202	0.14
329.669	1.07
330.136	1.07
330.603	0.92
331.069	0.43
331.536	0.57
332.003	1.12
332.469	0.82
332.936	0.76
333.402	0.47
333.869	0.71
334.336	0.11
334.802	1.37
335.268	0.8
335.735	1.16
336.201	0.76
336.668	0.79
337.134	0.16
337.6	-0.16
338.067	0.99
338.533	0.7
338.999	0.21
339.465	0.12
339.931	1.14
340.398	0.55
340.864	0.75
341.33	0.19
341.796	0.66
342.262	0.45
342.728	0.68
343.194	0.25
343.66	0.95
344.126	1.01
344.592	0.5
345.057	1.18
345.523	0.9
345.989	0.56
346.455	0.31
346.921	0.75
347.386	0.7
347.852	0.35
348.318	0.63
348.783	0.49
349.249	0.23
349.714	0.92
350.18	1.05
350.645	-0.51
351.111	0.76
351.576	0.46
352.042	0.76
352.507	1.11
352.973	0.34
353.438	0.93
353.903	1.01
354.369	0.57
354.834	0.41
355.299	1.27
355.764	0.68
356.229	1.01
356.695	0.49
357.16	0.5
357.625	0.55
358.09	0.26
358.555	1.08
359.02	0.59
359.485	0.89
359.95	0.3
360.415	0.67
360.879	0.52
361.344	-0.15
361.809	0.22
362.274	0.31
362.739	0
363.203	1.11
363.668	0.84
364.133	0.47
364.597	1.17
365.062	0.19
365.527	0.37
365.991	1.19
366.456	0.25
366.92	-0.54
367.385	0.31
367.849	-0.03
368.314	0.19
368.778	0.13
369.242	-0.03
369.707	0.63
370.171	0.95
370.635	0.76
371.1	0.54
371.564	1.15
372.028	0.34
372.492	0.94
372.956	0.4
373.42	0.18
373.884	0.51
374.348	1.45
374.812	0.18
375.276	0.65
375.74	0.23
376.204	0.76
376.668	0.56
377.132	0.49
377.596	0.14
378.06	0.88
378.524	-0.14
378.987	0.05
379.451	0.49
379.915	0.49
380.378	0.53
380.842	0.31
381.306	0.31
381.769	-0.29
382.233	1.11
382.696	0.46
383.16	0.31
383.623	0.86
384.087	-0.28
384.55	0.89
385.014	0.89
385.477	0.54
385.94	1.12
386.404	0.48
386.867	0.45
387.33	1.13
387.793	0.54
388.256	-0.16
388.72	0.74
389.183	0.76
389.646	0.96
390.109	0.59
390.572	0.36
391.035	0.64
391.498	0.62
391.961	0.15
392.424	0.76
392.887	0.58
393.35	0.32
393.812	0.92
394.275	0.51
394.738	0.81
395.201	0.62
395.664	0.22
396.126	0.1
396.589	0.07
397.052	0.25
397.514	0.57
397.977	0.48
398.439	0.87
398.902	1.02
399.364	0.52
399.827	0.47
400.289	0.35
400.752	0.48
401.214	0.59
401.676	0.03
402.139	0.11
402.601	0.82
403.063	1.01
403.525	0.06
403.988	-0.17
404.45	0.56
404.912	0.58
405.374	0.19
405.836	0.68
406.298	0.59
406.76	0.47
407.222	1.03
407.684	0.48
408.146	0.66
408.608	0.43
409.07	0.97
409.532	0.03
409.994	0.45
410.456	0.48
410.917	0.44
411.379	1.01
411.841	0.32
412.303	0.38
412.764	0
413.226	0.51
413.687	1.18
414.149	0.48
414.611	0.67
415.072	0.12
415.534	0.54
415.995	0.25
416.457	0.38
416.918	0.3
417.379	0.3
417.841	0.78
418.302	0.5
418.763	0.58
419.225	0.73
419.686	0.49
420.147	0.91
420.608	0.61
421.069	0.34
421.53	0.45
421.991	0.76
422.453	0.62
422.914	0.1
423.375	-0.24
423.836	0.71
424.297	0.2
424.757	0.21
425.218	0.55
425.679	-0.03
426.14	0.92
426.601	0
427.062	-0.15
427.522	-0.47
427.983	0.32
428.444	1.16
428.904	0.33
429.365	-0.22
429.826	1.2
430.286	0.92
430.747	0.23
431.207	-0.8
431.668	1.74
432.128	0.55
432.589	-0.67
433.049	0.15
433.509	0.94
433.97	0.33
434.43	1
434.89	-0.63
435.351	1.65
435.811	0.67
436.271	-0.22
436.731	1.02
437.191	0.95
437.651	-0.17
438.112	0.08
438.572	-1.69
439.032	-0.75
439.492	0.63
439.952	0.92
440.412	-0.18
440.871	1.66
441.331	1.48
441.791	0.17
442.251	1.28
442.711	0.79
443.171	1.47
443.63	0.21
444.09	-0.69
444.55	0.66
445.009	0.66
445.469	0.93
445.929	0.74
446.388	1.16
446.848	0.31
447.307	0.56
447.767	0.2
448.226	0.4
448.686	0.31
449.145	-0.71
449.604	0.84
450.064	0.54
450.523	0.49
450.982	1.1
451.442	0.12
451.901	-0.24
452.36	1.44
452.819	0.2
453.278	0.46
453.737	0.56
454.197	0.67
454.656	-0.36
455.115	-0.24
455.574	1.12
456.033	0.77
456.492	0.41
456.95	0.65
457.409	1
457.868	0.85
458.327	0.34
458.786	-0.21
459.245	-0.7
459.703	0.22
460.162	0.86
460.621	-0.22
461.079	-0.4
461.538	0.47
461.997	0.35
462.455	0.83
462.914	0.18
463.372	0.27
463.831	0.35
464.289	-0.22
464.748	-0.05
465.206	0.6
465.664	0.19
466.123	0.9
466.581	-0.45
467.039	0.46
467.497	-0.46
467.956	0.05
468.414	-0.33
468.872	-0.24
469.33	-0.29
469.788	1
470.246	0.53
470.704	0.77
471.162	0.64
471.62	0.95
472.078	-0.7
472.536	1.29
472.994	0.15
473.452	0.25
473.91	0.34
474.368	-0.1
474.826	1.8
475.283	-0.74
475.741	-0.05
476.199	0.45
476.656	-0.1
477.114	0.25
477.572	0.2
478.029	-0.05
478.487	0.34
478.944	-0.68
479.402	0.6
479.859	0.65
480.317	-0.72
480.774	2.5
481.232	0.05
481.689	-0.86
482.146	0.81
482.604	-0.31
483.061	-1.01
483.518	0.05
483.975	0.9
484.433	-0.4
484.89	0.15
485.347	1.36
485.804	0.15
486.261	-0.4
486.718	0.65
487.175	-0.2
487.632	0.05
488.089	-1.45
488.546	1.21
489.003	1.54
489.46	0.72
489.917	0.2
490.373	0.97
490.83	-0.41
491.287	-0.15
491.744	0.05
492.2	-0.31
492.657	1.31
493.114	0.46
493.57	0.05
494.027	0.15
494.484	0.73
494.94	0.1
495.397	0.83
495.853	0.05
496.31	0.99
496.766	0.7
497.222	0.69
497.679	0.3
498.135	0.58
498.591	0.1
499.048	0.15
499.504	-1.38
499.96	1.24
500.416	1.69
500.872	1.37
501.329	0.75
501.785	0.14
502.241	-0.75
502.697	0.64
503.153	-0.37
503.609	0.98
504.065	0.14
504.521	0.89
504.977	-0.87
505.432	0.3
505.888	0.39
506.344	0.17
506.8	0.62
507.256	0.86
507.711	1.2
508.167	-0.41
508.623	-0.08
509.078	0.87
509.534	-0.56
509.99	0.31
510.445	0
510.901	0.27
511.356	0.57
511.812	1.14
512.267	0.08
512.722	0.48
513.178	0.33
513.633	1.14
514.089	0.54
514.544	0.04
514.999	0.47
515.454	0.04
515.91	0.18
516.365	-1.16
516.82	0.07
517.275	0.31
517.73	0.42
518.185	0.03
518.64	1.41
519.095	0.07
519.55	0.07
520.005	0.78
520.46	0.95
520.915	-0.41
521.37	0.07
521.825	0
522.28	0.68
522.734	0.27
523.189	0.54
523.644	0.71
524.099	0.81
524.553	0.34
525.008	0.31
525.462	0.96
525.917	0.31
526.372	0.49
526.826	0.93
527.281	-0.32
527.735	0.47
528.19	0.04
528.644	0.7
529.098	0.36
529.553	0.87
530.007	1.64
530.461	0.15
530.916	0.47
531.37	0.82
531.824	0.3
532.278	0.68
532.732	-0.11
533.186	0.15
533.641	0.08
534.095	0.42
534.549	0.35
535.003	0.39
535.457	0.69
535.911	0.55
536.365	1.19
536.818	0.16
537.272	-0.35
537.726	0.12
538.18	0.98
538.634	0.35
539.087	0.39
539.541	0.44
539.995	0.69
540.449	1.02
540.902	0.7
541.356	-0.55
541.809	-0.48
542.263	-0.43
542.716	0.78
543.17	-0.08
543.623	-0.08
544.077	1.17
544.53	-0.62
544.984	0.69
545.437	0.89
545.89	0.34
546.344	0.34
546.797	-0.07
547.25	0.23
547.703	-0.45
548.157	0.97
548.61	-0.25
549.063	1.59
549.516	-0.07
549.969	-0.22
550.422	1.06
550.875	-0.14
551.328	-0.49
551.781	-0.1
552.234	-0.21
552.687	-0.07
553.14	0.24
553.592	0
554.045	-0.07
554.498	0.17
554.951	0.29
555.404	0.8
555.856	0.19
556.309	0.35
556.762	-0.56
557.214	0.83
557.667	0.25
558.119	0.3
558.572	0.78
559.024	0.42
559.477	0.91
559.929	0.7
560.382	0.29
560.834	1.14
561.286	-0.06
561.739	0.11
562.191	0.97
562.643	-0.14
563.095	1.09
563.548	0.43
564	0.51
564.452	0.72
564.904	0.79
565.356	1.23
565.808	0.66
566.26	0.44
566.712	0.54
567.164	0.28
567.616	0.76
568.068	0.89
568.52	0.8
568.972	0.97
569.424	0.51
569.876	0.97
570.327	0
570.779	1.29
571.231	0.74
571.682	0.9
572.134	0.02
572.586	0.76
573.037	-0.07
573.489	0.86
573.941	0.4
574.392	0.87
574.844	0.54
575.295	0.61
575.746	0.67
576.198	0.57
576.649	0.93
577.101	0.66
577.552	0.42
578.003	0.47
578.454	0.51
578.906	0.51
579.357	0.79
579.808	0.49
580.259	0.44
580.71	0.79
581.161	0.51
581.612	0.41
582.064	0.8
582.515	0.78
582.965	1.1
583.416	0.92
583.867	-0.05
584.318	0.65
584.769	0.56
585.22	0.75
585.671	0.6
586.122	0.83
586.572	0.73
587.023	0.66
587.474	0.7
587.924	0.21
588.375	0.23
588.826	0.07
589.276	0.35
589.727	0.92
590.177	0.75
590.628	0.4
591.078	0.42
591.529	0.49
591.979	0.68
592.429	0.64
592.88	0.45
593.33	0.49
593.78	1.26
594.231	1
594.681	0.42
595.131	0.81
595.581	0.9
596.031	0.14
596.481	0.77
596.932	0.53
597.382	0.56
597.832	0.46
598.282	0.95
598.732	1.13
599.182	0.14
599.632	0.65
600.081	0.26
600.531	0.48
600.981	0.37
601.431	0.88
601.881	0.92
602.33	0.57
602.78	0.47
603.23	0.78
603.679	0.67
604.129	0.25
604.579	0.8
605.028	-0.07
605.478	0.67
605.927	0.86
606.377	0.71
606.826	0.8
607.276	0.39
607.725	0.94
608.175	1.01
608.624	0.93
609.073	0.55
609.522	0.98
609.972	1.05
610.421	0.33
610.87	0.53
611.319	0.66
611.768	0.26
612.218	0.52
612.667	0.62
613.116	0.77
613.565	0.53
614.014	1.04
614.463	0.78
614.912	0.31
615.361	0.76
615.81	1.33
616.258	1.08
616.707	0.89
617.156	1.12
617.605	0.24
618.054	1.05
618.502	1.31
618.951	1.04
619.4	0.87
619.848	0.98
620.297	0.95
620.745	0.93
621.194	0.84
621.642	0.7
622.091	0.87
622.539	0.96
622.988	0.81
623.436	0.77
623.885	0.95
624.333	0.74
624.781	1.19
625.23	0.93
625.678	0.47
626.126	1.09
626.574	1.04
627.022	0.92
627.471	0.66
627.919	0.73
628.367	0.74
628.815	0.82
629.263	1.02
629.711	1.23
630.159	0.74
630.607	0.63
631.055	0.9
631.503	1.1
631.95	0.98
632.398	0.91
632.846	0.92
633.294	0.93
633.742	0.76
634.189	0.72
634.637	1.1
635.085	1.15
635.532	0.78
635.98	0.75
636.427	1.08
636.875	1.58
637.323	0.61
637.77	1.26
638.217	1.25
638.665	0.95
639.112	0.86
639.56	0.93
640.007	1.02
640.454	0.86
640.902	1.22
641.349	1.2
641.796	1.02
642.243	0.77
642.69	1.1
643.138	0.72
643.585	1.06
644.032	1.11
644.479	0.77
644.926	0.8
645.373	1.13
645.82	1
646.267	0.88
646.714	1.08
647.161	1.1
647.607	1.19
648.054	1.19
648.501	0.99
648.948	0.84
649.395	1.04
649.841	0.93
650.288	0.93
650.735	0.94
651.181	0.88
651.628	1.29
652.075	1.18
652.521	0.93
652.968	1.16
653.414	1.33
653.861	0.97
654.307	1.62
654.753	1.15
655.2	1.04
655.646	1.01
656.092	1.04
656.539	1.09
656.985	1.13
657.431	1.14
657.877	1.28
658.324	1.14
658.77	1.27
659.216	1.26
659.662	1.19
660.108	1.14
660.554	1.16
661	1.17
661.446	1.2
661.892	1.1
662.338	1.08
662.784	1.17
663.23	1.25
663.675	0.96
664.121	1.24
664.567	1.31
665.013	1.1
665.458	0.95
665.904	1.1
666.35	0.97
666.795	1.1
667.241	1.44
667.687	1.23
668.132	1.21
668.578	1.5
669.023	1.22
669.469	0.98
669.914	1
670.359	1.19
670.805	1.22
671.25	1.11
671.695	1.12
672.141	1
672.586	1.38
673.031	1.65
673.476	1.22
673.922	1.3
674.367	0.89
674.812	1.06
675.257	1.02
675.702	1.11
676.147	0.99
676.592	1.17
677.037	1.42
677.482	1.34
677.927	1.28
678.372	1.49
678.817	1.29
679.261	1.12
679.706	1.2
680.151	1.42
680.596	1.28
681.04	1.44
681.485	1.28
681.93	1.21
682.374	1.17
682.819	1.14
683.264	1.18
683.708	0.85
684.153	1.72
684.597	1.45
685.042	1.27
685.486	1.05
685.93	1.38
686.375	0.95
686.819	1.24
687.263	1.5
687.708	1.41
688.152	1.38
688.596	1.43
689.04	1.22
689.485	1.38
689.929	1.66
690.373	1.17
690.817	1.41
691.261	1.44
691.705	1.5
692.149	1.21
692.593	1.27
693.037	1.47
693.481	1.29
693.925	1.43
694.369	1.31
694.812	1.1
695.256	1.09
695.7	1.3
696.144	1.32
696.587	1.28
697.031	1.7
697.475	1.47
697.918	1.25
698.362	1.23
698.806	1.56
699.249	1.28
699.693	1.4
700.136	1.46
700.58	1.35
701.023	1.41
701.466	1.58
701.91	1.48
702.353	1.5
702.796	1.51
703.24	1.09
703.683	1.5
704.126	1.59
704.569	1.55
705.013	1.54
705.456	1.37
705.899	1.41
706.342	1.6
706.785	1.42
707.228	1.23
707.671	1.26
708.114	1.51
708.557	1.46
709	1.38
709.443	1.43
709.886	1.55
710.328	1.47
710.771	1.51
711.214	1.58
711.657	1.61
712.099	1.57
712.542	1.46
712.985	1.41
713.427	1.45
713.87	1.43
714.313	1.56
714.755	1.54
715.198	1.44
715.64	1.83
716.083	1.53
716.525	1.68
716.967	1.82
717.41	1.5
717.852	1.43
718.295	1.58
718.737	1.28
719.179	1.72
719.621	1.46
720.063	1.62
720.506	1.8
720.948	1.66
721.39	1.52
721.832	1.67
722.274	1.81
722.716	1.7
723.158	1.58
723.6	1.41
724.042	1.84
724.484	1.72
724.926	1.68
725.368	1.42
725.81	1.84
726.251	1.78
726.693	1.59
727.135	1.68
727.577	1.5
728.018	1.77
728.46	1.25
728.902	1.67
729.343	1.57
729.785	1.74
730.226	1.75
730.668	1.57
731.109	1.82
731.551	1.59
731.992	1.84
732.434	1.83
732.875	1.65
733.316	1.37
733.758	1.62
734.199	1.83
734.64	1.78
735.081	1.76
735.523	1.5
735.964	1.72
736.405	1.69
736.846	1.84
737.287	1.54
737.728	1.66
738.169	1.92
738.61	1.64
739.051	1.64
739.492	1.56
739.933	1.9
740.374	1.89
740.815	1.78
741.256	1.95
741.696	1.85
742.137	1.8
742.578	1.67
743.019	1.75
743.459	1.71
743.9	1.85
744.341	1.85
744.781	2
745.222	2.03
745.662	1.76
746.103	1.64
746.543	1.51
746.984	1.96
747.424	1.94
747.865	2.04
748.305	1.74
748.745	1.85
749.186	1.85
749.626	1.86
750.066	2
750.506	1.8
750.947	1.75
751.387	1.8
751.827	1.85
752.267	1.82
752.707	1.91
753.147	1.9
753.587	1.9
754.027	1.87
754.467	1.92
754.907	2.05
755.347	1.58
755.787	2.04
756.227	2.03
756.667	2.11
757.107	1.99
757.546	1.78
757.986	1.9
758.426	1.82
758.865	1.82
759.305	1.92
759.745	2.19
760.184	2.18
760.624	1.88
761.063	2.17
761.503	2.04
761.943	1.9
762.382	1.89
762.821	2.15
763.261	2.36
763.7	2.03
764.14	1.92
764.579	2.1
765.018	2.03
765.457	2.1
765.897	2.36
766.336	1.57
766.775	1.96
767.214	2.12
767.653	1.92
768.092	2.02
768.531	2.16
768.97	2.16
769.409	1.99
769.848	2.12
770.287	2.06
770.726	2.32
771.165	2.2
771.604	2.1
772.043	2.17
772.482	2.13
772.92	1.98
773.359	2.22
773.798	1.84
774.237	2.29
774.675	2.25
775.114	2.24
775.553	2.07
775.991	2.18
776.43	2.34
776.868	2.08
777.307	2.38
777.745	2.34
778.184	2.56
778.622	2.13
779.06	2.29
779.499	2.4
779.937	2.29
780.375	2.24
780.814	2.3
781.252	2.27
781.69	2.24
782.128	2.32
782.566	2.21
783.004	2.13
783.443	2.29
783.881	2.41
784.319	2.54
784.757	2.5
785.195	2.36
785.633	2.21
786.071	2.26
786.508	2.41
786.946	2.33
787.384	2.24
787.822	2.46
788.26	2.35
788.697	2.4
789.135	2.31
789.573	2.49
790.011	2.31
790.448	2.29
790.886	2.35
791.323	2.37
791.761	2.43
792.198	2.61
792.636	2.4
793.073	2.5
793.511	2.23
793.948	2.42
794.386	2.78
794.823	2.57
795.26	2.44
795.698	2.49
796.135	2.6
796.572	2.38
797.009	2.48
797.446	2.6
797.884	2.5
798.321	2.5
798.758	2.44
799.195	2.48
799.632	2.77
800.069	2.62
800.506	2.6
800.943	2.57
801.38	2.44
801.817	2.55
802.254	2.44
802.69	2.61
803.127	2.8
803.564	2.64
804.001	2.68
804.438	2.98
804.874	2.48
805.311	2.59
805.748	2.68
806.184	2.61
806.621	2.86
807.057	2.54
807.494	2.71
807.93	2.71
808.367	2.67
808.803	2.92
809.24	2.68
809.676	2.84
810.112	2.57
810.549	2.83
810.985	2.66
811.421	2.82
811.857	2.67
812.294	2.95
812.73	3
813.166	2.8
813.602	2.96
814.038	2.98
814.474	3
814.91	2.86
815.346	2.88
815.782	2.89
816.218	2.75
816.654	2.94
817.09	2.9
817.526	2.87
817.962	3.02
818.398	2.8
818.833	3.1
819.269	2.86
819.705	2.78
820.141	2.8
820.576	2.95
821.012	3.17
821.447	2.84
821.883	3.06
822.319	3.07
822.754	2.91
823.19	2.98
823.625	3.11
824.061	3.01
824.496	2.96
824.931	3.1
825.367	3.14
825.802	2.83
826.237	3.19
826.673	3.26
827.108	3.34
827.543	3.3
827.978	2.96
828.413	3.41
828.849	3.16
829.284	3.17
829.719	3.21
830.154	3.16
830.589	3.11
831.024	3.22
831.459	3.27
831.894	3.27
832.329	3.2
832.763	3.35
833.198	3.25
833.633	3.31
834.068	3.3
834.503	3.28
834.937	3.18
835.372	3.29
835.807	3.18
836.241	3.33
836.676	3.17
837.111	3.35
837.545	3.44
837.98	3.5
838.414	3.53
838.849	3.37
839.283	3.33
839.717	3.59
840.152	3.31
840.586	3.35
841.021	3.59
841.455	3.43
841.889	3.28
842.323	3.65
842.758	3.58
843.192	3.5
843.626	3.59
844.06	3.48
844.494	3.45
844.928	3.64
845.362	3.62
845.796	3.56
846.23	3.56
846.664	3.53
847.098	3.64
847.532	3.58
847.966	3.55
848.4	3.61
848.834	3.76
849.267	3.53
849.701	3.48
850.135	3.69
850.569	3.69
851.002	3.6
851.436	3.6
851.87	3.79
852.303	3.62
852.737	3.72
853.17	3.59
853.604	3.81
854.037	3.82
854.471	3.74
854.904	3.8
855.337	3.69
855.771	3.93
856.204	3.86
856.637	3.89
857.071	4
857.504	3.88
857.937	3.77
858.37	3.8
858.804	3.83
859.237	3.98
859.67	4.04
860.103	3.93
860.536	4
860.969	3.88
861.402	4.14
861.835	4.1
862.268	3.75
862.701	3.96
863.134	3.99
863.566	3.93
863.999	3.96
864.432	4.06
864.865	3.89
865.298	4.04
865.73	4.19
866.163	4.09
866.596	4.16
867.028	4.08
867.461	4.1
867.893	3.95
868.326	4.13
868.758	4.04
869.191	4.46
869.623	4.15
870.056	4.18
870.488	4.24
870.92	4.19
871.353	4.21
871.785	4.08
872.217	4.01
872.65	4.14
873.082	4.19
873.514	4.27
873.946	4.34
874.378	4.1
874.81	4.36
875.243	4.2
875.675	4.28
876.107	4.26
876.539	4.37
876.971	4.29
877.403	4.43
877.834	4.29
878.266	4.34
878.698	4.55
879.13	4.18
879.562	4.33
879.994	4.41
880.425	4.45
880.857	4.46
881.289	4.67
881.72	4.53
882.152	4.56
882.584	4.59
883.015	4.62
883.447	4.45
883.878	4.67
884.31	4.46
884.741	4.58
885.173	4.71
885.604	4.62
886.035	4.84
886.467	4.6
886.898	4.71
887.329	4.62
887.76	4.48
888.192	4.7
888.623	4.69
889.054	4.81
889.485	5.01
889.916	4.61
890.347	4.84
890.778	4.7
891.209	4.73
891.64	4.87
892.071	4.88
892.502	4.82
892.933	4.79
893.364	4.96
893.795	4.89
894.226	4.9
894.657	4.98
895.087	4.84
895.518	4.74
895.949	4.94
896.38	4.86
896.81	4.88
897.241	4.96
897.671	4.96
898.102	5.23
898.533	5.09
898.963	5.16
899.394	4.93
899.824	5.23
900.254	5.24
900.685	5.13
901.115	5.06
901.546	5.05
901.976	5.08
902.406	5.2
902.836	5.19
903.267	5.41
903.697	5.16
904.127	5.24
904.557	5.2
904.987	5.23
905.417	5
905.847	5.23
906.277	5.49
906.707	5.34
907.137	5.28
907.567	5.41
907.997	5.46
908.427	5.2
908.857	5.51
909.287	5.32
909.717	5.4
910.146	5.5
910.576	5.41
911.006	5.46
911.436	5.32
911.865	5.42
912.295	5.45
912.724	5.37
913.154	5.49
913.584	5.52
914.013	5.48
914.443	5.57
914.872	5.77
915.302	5.53
915.731	5.58
916.16	5.72
916.59	5.57
917.019	5.81
917.448	5.66
917.878	5.78
918.307	5.69
918.736	5.73
919.165	5.85
919.594	5.67
920.023	5.7
920.452	5.83
920.882	5.61
921.311	5.78
921.74	5.92
922.169	5.9
922.597	5.84
923.026	5.86
923.455	5.87
923.884	5.7
924.313	5.94
924.742	5.83
925.171	6
925.599	5.95
926.028	6
926.457	6.06
926.885	5.86
927.314	6.11
927.743	6.09
928.171	6.07
928.6	5.97
929.028	6.12
929.457	5.95
929.885	6.01
930.314	6.22
930.742	6.13
931.17	6.21
931.599	6.12
932.027	6.15
932.455	5.98
932.884	6.19
933.312	6.22
933.74	6.2
934.168	6.26
934.596	6.36
935.025	6.26
935.453	6.22
935.881	6.28
936.309	6.34
936.737	6.1
937.165	6.21
937.593	6.38
938.021	6.26
938.449	5.97
938.876	6.36
939.304	6.32
939.732	6.36
940.16	6.32
940.588	6.18
941.015	6.45
941.443	6.31
941.871	6.66
942.298	6.47
942.726	6.4
943.154	6.35
943.581	6.21
944.009	6.24
944.436	6.66
944.864	6.61
945.291	6.33
945.718	6.25
946.146	6.43
946.573	6.71
947.001	6.79
947.428	6.71
947.855	6.48
948.282	6.52
948.71	6.49
949.137	6.75
949.564	6.64
949.991	6.6
950.418	6.65
950.845	6.77
951.272	6.64
951.699	6.93
952.126	7
952.553	6.86
952.98	7.03
953.407	6.84
953.834	6.86
954.261	6.99
954.688	7.24
955.114	7.01
955.541	6.85
955.968	6.83
956.395	7.15
956.821	7.15
957.248	7.16
957.674	7.05
958.101	7.23
958.528	7.08
958.954	7.22
959.381	7.08
959.807	7.25
960.234	6.99
960.66	7.19
961.086	7.13
961.513	7.19
961.939	7.22
962.365	7.37
962.792	7.18
963.218	7.33
963.644	7.22
964.07	7.3
964.496	7.25
964.923	7.28
965.349	7.28
965.775	7.4
966.201	7.33
966.627	7.43
967.053	7.4
967.479	7.61
967.905	7.43
968.331	7.44
968.756	7.51
969.182	7.49
969.608	7.47
970.034	7.49
970.46	7.48
970.885	7.57
971.311	7.41
971.737	7.61
972.162	7.53
972.588	7.71
973.014	7.71
973.439	7.6
973.865	7.79
974.29	7.63
974.716	7.66
975.141	7.56
975.567	7.78
975.992	7.85
976.417	7.76
976.843	7.72
977.268	7.73
977.693	7.97
978.119	7.81
978.544	7.84
978.969	7.75
979.394	8.02
979.819	7.87
980.244	8.02
980.669	8.13
981.095	8.1
981.52	8.11
981.945	7.95
982.369	8.02
982.794	8.06
983.219	7.98
983.644	7.97
984.069	8.07
984.494	8.15
984.919	8.14
985.343	8.2
985.768	8.1
986.193	8.19
986.618	8.25
987.042	8.24
987.467	8.16
987.891	8.05
988.316	8.36
988.741	8.39
989.165	8.52
989.59	8.4
990.014	8.37
990.438	8.46
990.863	8.36
991.287	8.3
991.712	8.28
992.136	8.5
992.56	8.58
992.984	8.45
993.409	8.45
993.833	8.62
994.257	8.5
994.681	8.42
995.105	8.64
995.529	8.4
995.953	8.48
996.377	8.55
996.801	8.78
997.225	8.64
997.649	8.74
998.073	8.67
998.497	8.71
998.921	8.71
999.345	8.67
999.769	8.66
1000.192	8.86
1000.616	8.64
1001.04	8.86
1001.464	8.92
1001.887	8.73
1002.311	8.82
1002.734	8.91
1003.158	8.87
1003.582	8.86
1004.005	9.12
1004.429	8.83
1004.852	8.96
1005.275	9.02
1005.699	8.93
1006.122	9.14
1006.546	9.06
1006.969	9.05
1007.392	8.93
1007.815	9.23
1008.239	9.15
1008.662	9.04
1009.085	9.17
1009.508	9.13
1009.931	9.18
1010.354	9.2
1010.778	9.05
1011.201	9.29
1011.624	9.14
1012.047	9.23
1012.469	9.36
1012.892	9.29
1013.315	9.23
1013.738	9.56
1014.161	9.2
1014.584	9.19
1015.007	9.39
1015.429	9.49
1015.852	9.42
1016.275	9.44
1016.697	9.35
1017.12	9.38
1017.543	9.46
1017.965	9.29
1018.388	9.55
1018.81	9.37
1019.233	9.48
1019.655	9.44
1020.078	9.53
1020.5	9.77
1020.922	9.55
1021.345	9.5
1021.767	9.76
1022.189	9.63
1022.612	9.71
1023.034	9.63
1023.456	9.68
1023.878	9.71
1024.301	9.65
1024.723	9.64
1025.145	9.71
1025.567	9.71
1025.989	9.94
1026.411	9.75
1026.833	9.84
1027.255	9.91
1027.677	9.72
1028.099	9.89
1028.52	10.19
1028.942	10.03
1029.364	9.89
1029.786	9.94
1030.208	9.94
1030.629	9.96
1031.051	10.1
1031.473	10.24
1031.894	10.23
1032.316	10.1
1032.738	10.05
1033.159	10.02
1033.581	10.13
1034.002	10.06
1034.424	10.2
1034.845	10.08
1035.267	10.35
1035.688	10.15
1036.109	10.19
1036.531	10.27
1036.952	10.07
1037.373	10.51
1037.794	10.25
1038.216	10.22
1038.637	10.19
1039.058	10.14
1039.479	10.44
1039.9	10.63
1040.321	10.2
1040.742	10.21
1041.163	10.53
1041.584	10.46
1042.005	10.69
1042.426	10.56
1042.847	10.16
1043.268	10.71
1043.689	10.37
1044.11	10.58
1044.53	10.61
1044.951	10.53
1045.372	10.69
1045.793	10.51
1046.213	10.82
1046.634	10.41
1047.055	10.54
1047.475	10.75
1047.896	10.86
1048.316	10.8
1048.737	10.66
1049.157	10.83
1049.578	11.04
1049.998	11.16
1050.419	11.05
1050.839	10.67
1051.259	11.13
1051.68	11.06
1052.1	10.44
1052.52	11.23
1052.94	10.79
1053.361	11.18
1053.781	11
1054.201	10.83
1054.621	11.2
1055.041	10.89
1055.461	10.97
1055.881	10.81
1056.301	11.22
1056.721	11.02
1057.141	11.09
1057.561	11
1057.981	11.2
1058.401	11.25
1058.82	11.22
1059.24	10.88
1059.66	11.45
1060.08	10.84
1060.499	11.12
1060.919	11.12
1061.339	10.92
1061.758	11.2
1062.178	11.08
1062.598	11.34
1063.017	11.19
1063.437	11.07
1063.856	11.28
1064.276	11.14
1064.695	11.06
1065.114	11.1
1065.534	11.3
1065.953	11.1
1066.372	11.26
1066.792	10.8
1067.211	11.35
1067.63	11.23
1068.049	11.22
1068.469	11.55
1068.888	11.47
1069.307	11.34
1069.726	11.3
1070.145	11.26
1070.564	11.37
1070.983	11.43
1071.402	11.6
1071.821	11.4
1072.24	11.65
1072.659	11.85
1073.078	11.34
1073.496	11.76
1073.915	11.9
1074.334	11.54
1074.753	11.58
1075.171	11.49
1075.59	11.81
1076.009	11.31
1076.427	12
1076.846	11.24
1077.265	11.79
1077.683	11.52
1078.102	12.15
1078.52	11.33
1078.939	11.68
1079.357	11.54
1079.776	11.49
1080.194	12.05
1080.612	12.11
1081.031	11.76
1081.449	12.41
1081.867	9.09
1082.285	11.91
1082.704	11.18
1083.122	11.87
1083.54	11.78
1083.958	12.04
1084.376	11.35
1084.794	11.43
1085.212	11.7
1085.63	11.81
1086.048	11.55
1086.466	11.81
1086.884	11.95
1087.302	12.25
1087.72	11.86
1088.138	12.75
1088.555	11.69
1088.973	11.81
1089.391	11.84
1089.809	11.49
1090.226	11.96
1090.644	12.63
1091.062	11.94
1091.479	11.88
1091.897	11.5
1092.314	12.2
1092.732	12.5
1093.15	12.81
1093.567	11.37
1093.984	12.36
1094.402	11.46
1094.819	11.9
1095.237	11.99
1095.654	11.76
1096.071	11.67
1096.488	12.12
1096.906	12.16
1097.323	12.3
1097.74	11.74
1098.157	11.45
1098.574	12.72
1098.991	12.07
1099.409	12.37
1099.826	12.04
1100.243	12.06
1100.66	12.86
1101.077	11.24
1101.494	11.98
1101.91	11.27
1102.327	12.58
1102.744	12.2
1103.161	12.47
1103.578	11.5
1103.994	12.3
1104.411	12.28
1104.828	12.97
1105.245	12.53
1105.661	12.49
1106.078	11.71
1106.494	11.74
1106.911	11.16
1107.328	12.71
1107.744	13.72
1108.161	11.4
1108.577	10.61
1108.993	10.95
1109.41	12.55
1109.826	11.66
1110.242	11.27
1110.659	12.13
1111.075	11.71
1111.491	11.76
1111.908	11.01
1112.324	13.61
1112.74	-5.25
1113.156	9.23
1113.572	11.63
1113.988	11.16
1114.404	11.73
1114.82	12.22
1115.236	9.79
1115.652	11.87
1116.068	9.32
1116.484	10.86
1116.9	12.17
1117.316	9.79
1117.732	-15.38
1118.147	16.67
1118.563	100
1118.979	-200
