Data from JCR0019_BlackVentral_Reflection_00002.txt Node
Date: Thu Jul 23 16:47:43 ACST 2020
User: Stacey Dix
Spectrometer: MAYP113282
Scans to average: 1
Trigger mode: 0
Integration Time (sec): 1.000000E-1
Electric dark correction enabled: true
Boxcar width: 0
XAxis mode: Wavelengths
Number of Pixels in Spectrum: 2068
>>>>>Begin Spectral Data<<<<<
198.791	-441.67
199.266	-83.33
199.74	58.33
200.215	0
200.69	-7.99
201.164	-8.22
201.639	-0.92
202.114	1.93
202.588	-19.18
203.063	-9.11
203.537	-9.85
204.012	8.69
204.486	-6.9
204.961	-9.94
205.435	1.12
205.909	-0.67
206.384	-8.15
206.858	-14.8
207.332	-9.32
207.807	-6.58
208.281	-0.62
208.755	-21.36
209.229	-11.26
209.703	10.57
210.177	-10.99
210.651	-12.47
211.126	-5.06
211.6	-5.81
212.074	-0.56
212.548	3.74
213.021	-9.04
213.495	0.83
213.969	-6.43
214.443	1.22
214.917	9.92
215.391	-0.95
215.864	-12.69
216.338	-7.09
216.812	-1.6
217.286	-4.94
217.759	10.53
218.233	-0.75
218.706	5.43
219.18	2.1
219.654	-2.48
220.127	3.35
220.6	1.59
221.074	1.44
221.547	5.31
222.021	-5.9
222.494	-3.83
222.967	2.4
223.441	-8.33
223.914	4.77
224.387	-1.2
224.86	5.07
225.334	0.48
225.807	0.04
226.28	-1.05
226.753	-0.31
227.226	0.51
227.699	1.54
228.172	0.34
228.645	-0.39
229.118	3.78
229.591	0.64
230.064	3.18
230.537	2.03
231.01	1.17
231.482	2.67
231.955	1.33
232.428	2.93
232.901	0.44
233.373	2.14
233.846	1.31
234.319	3.11
234.791	0.23
235.264	1.42
235.736	0.79
236.209	3.41
236.681	0.79
237.154	1.53
237.626	2.35
238.099	1.64
238.571	2.32
239.044	1.56
239.516	1.72
239.988	0.97
240.46	3.26
240.933	1.09
241.405	1.16
241.877	1.63
242.349	2.19
242.821	1.85
243.293	1.16
243.765	1.85
244.237	2.41
244.71	1.71
245.181	0.95
245.653	1.74
246.125	1.93
246.597	1.02
247.069	1.09
247.541	2.23
248.013	2.35
248.485	2.58
248.956	1.08
249.428	1.81
249.9	1.49
250.371	2.42
250.843	1.64
251.315	0.95
251.786	2.49
252.258	1.3
252.729	1.57
253.201	1.45
253.672	1.56
254.144	1.6
254.615	1.61
255.086	1.4
255.558	1.53
256.029	1.61
256.5	1.47
256.972	1.24
257.443	1.15
257.914	2.32
258.385	1.1
258.856	1.54
259.327	1.36
259.799	0.97
260.27	1.58
260.741	1.49
261.212	1.25
261.683	1.19
262.154	1.72
262.624	1.1
263.095	0.9
263.566	2.21
264.037	1.62
264.508	1.53
264.979	1.7
265.449	1.2
265.92	1.21
266.391	1.04
266.861	1.51
267.332	1.53
267.803	1.53
268.273	1.69
268.744	1.38
269.214	1.74
269.685	1.48
270.155	1.61
270.626	1.14
271.096	0.47
271.566	1.55
272.037	1.77
272.507	1.45
272.977	0.59
273.448	0.98
273.918	1.36
274.388	1.01
274.858	1.19
275.328	1.7
275.798	1.58
276.268	0.96
276.738	0.93
277.208	1.72
277.678	0.9
278.148	0.08
278.618	0.78
279.088	1.76
279.558	1.41
280.028	1.35
280.498	1.82
280.968	0.59
281.437	1.32
281.907	1.09
282.377	0.93
282.847	1.57
283.316	1.58
283.786	0.92
284.255	0.98
284.725	1.53
285.194	1.45
285.664	1.33
286.133	0.74
286.603	1.12
287.072	0.55
287.542	1.61
288.011	1.51
288.48	0.84
288.95	1.86
289.419	1.51
289.888	1.36
290.357	1.13
290.827	1.02
291.296	1.25
291.765	1.49
292.234	0.91
292.703	0.82
293.172	1.1
293.641	1.31
294.11	1.17
294.579	2.04
295.048	1.59
295.517	1.52
295.986	1.27
296.455	1.64
296.923	0.4
297.392	1.23
297.861	0.95
298.33	1.09
298.798	1.28
299.267	0.66
299.736	1.72
300.204	0.01
300.673	1.04
301.141	0.25
301.61	1.08
302.079	0.72
302.547	1.46
303.015	1.38
303.484	1.18
303.952	1.14
304.421	0.84
304.889	1.66
305.357	1.48
305.825	1.14
306.294	1.09
306.762	1.84
307.23	0.64
307.698	1.15
308.166	0.73
308.634	0.55
309.103	1
309.571	1.11
310.039	1.18
310.507	1.5
310.975	0.36
311.442	1.71
311.91	1.42
312.378	0.97
312.846	0.8
313.314	1.4
313.782	0.91
314.249	1.21
314.717	0.84
315.185	1.04
315.652	0.89
316.12	0.74
316.588	1.6
317.055	0.77
317.523	1.4
317.99	0.78
318.458	1.17
318.925	0.64
319.393	1.69
319.86	0.92
320.328	1.16
320.795	1
321.262	1.45
321.73	0.82
322.197	1.76
322.664	0.63
323.131	0.95
323.598	0.86
324.066	0.96
324.533	1.16
325	0.79
325.467	1.77
325.934	0.42
326.401	0.42
326.868	0.83
327.335	0.91
327.802	0.79
328.269	0.8
328.735	0.32
329.202	0.54
329.669	0.71
330.136	0.88
330.603	1.06
331.069	0.76
331.536	0.77
332.003	1.1
332.469	0.68
332.936	1.04
333.402	0.47
333.869	1.23
334.336	0.59
334.802	1.01
335.268	0.57
335.735	0.47
336.201	1.24
336.668	1.1
337.134	0.42
337.6	0.68
338.067	1.09
338.533	0.61
338.999	0.58
339.465	0
339.931	0.78
340.398	0.68
340.864	0.76
341.33	0.77
341.796	0.64
342.262	0.59
342.728	0.63
343.194	0.06
343.66	1.21
344.126	1.29
344.592	0.06
345.057	1.07
345.523	1.21
345.989	0.71
346.455	0.34
346.921	0.95
347.386	0.88
347.852	0.21
348.318	1.35
348.783	0.56
349.249	0.44
349.714	1.02
350.18	0.85
350.645	-0.14
351.111	0.71
351.576	1.19
352.042	0.35
352.507	0.41
352.973	0.63
353.438	0.51
353.903	0.17
354.369	0.52
354.834	0.61
355.299	1.05
355.764	0.03
356.229	0.93
356.695	0.26
357.16	0.21
357.625	0.3
358.09	0.5
358.555	1.06
359.02	0.83
359.485	1.23
359.95	0.82
360.415	1.13
360.879	0.89
361.344	0.01
361.809	0.82
362.274	0.5
362.739	0.22
363.203	1.08
363.668	0.87
364.133	-0.18
364.597	1.39
365.062	0.44
365.527	0.22
365.991	1.44
366.456	0.53
366.92	0.35
367.385	0.16
367.849	-0.12
368.314	-0.15
368.778	0.99
369.242	0.35
369.707	-0.21
370.171	0.77
370.635	0.29
371.1	0.38
371.564	0.32
372.028	0.35
372.492	1.13
372.956	0.87
373.42	0.55
373.884	0.85
374.348	1.34
374.812	0.39
375.276	1.13
375.74	0.62
376.204	0.8
376.668	0.6
377.132	-0.08
377.596	0.23
378.06	0.72
378.524	0.54
378.987	-0.05
379.451	0.79
379.915	0.33
380.378	0.45
380.842	0.4
381.306	0.31
381.769	0.66
382.233	0.66
382.696	0.15
383.16	-0.02
383.623	0.86
384.087	-0.11
384.55	1.15
385.014	1.27
385.477	0.8
385.94	0.78
386.404	0.62
386.867	0.2
387.33	1.25
387.793	0.38
388.256	0.6
388.72	1.19
389.183	0.47
389.646	0.68
390.109	0.31
390.572	0.75
391.035	0.03
391.498	0.67
391.961	0.32
392.424	0.67
392.887	0.86
393.35	0.34
393.812	0.48
394.275	0.69
394.738	0.97
395.201	0.62
395.664	-0.02
396.126	0.13
396.589	1
397.052	0.35
397.514	0.43
397.977	0.6
398.439	0.67
398.902	0.7
399.364	0.24
399.827	0.82
400.289	0.22
400.752	0.27
401.214	0.57
401.676	0.22
402.139	-0.36
402.601	0.65
403.063	0.51
403.525	0.43
403.988	-0.16
404.45	0.26
404.912	0.7
405.374	0
405.836	0.33
406.298	0.2
406.76	0.48
407.222	0.34
407.684	0.43
408.146	0.67
408.608	0.85
409.07	0.66
409.532	0.26
409.994	0.69
410.456	0.61
410.917	0.73
411.379	0.81
411.841	0.62
412.303	0.45
412.764	-0.19
413.226	0.74
413.687	0.34
414.149	0.51
414.611	0.48
415.072	0.45
415.534	0.72
415.995	0.41
416.457	0.53
416.918	0.75
417.379	0.21
417.841	0.78
418.302	0.65
418.763	0.78
419.225	0.55
419.686	0.47
420.147	0.89
420.608	0.9
421.069	-0.02
421.53	0.36
421.991	0.74
422.453	0.17
422.914	0.25
423.375	-0.24
423.836	0.38
424.297	0.26
424.757	0.03
425.218	0.77
425.679	0.49
426.14	0.72
426.601	0.58
427.062	0.53
427.522	-0.11
427.983	0.13
428.444	1.16
428.904	0.3
429.365	0.05
429.826	0.26
430.286	-0.12
430.747	0.42
431.207	-0.04
431.668	0.69
432.128	1.01
432.589	0.27
433.049	-0.44
433.509	0.99
433.97	0.1
434.43	-0.04
434.89	0.28
435.351	0.54
435.811	-0.04
436.271	-0.6
436.731	1.33
437.191	0.26
437.651	0.34
438.112	0.35
438.572	0.05
439.032	-1.08
439.492	0.81
439.952	0.47
440.412	0.8
440.871	0.47
441.331	0.05
441.791	0.44
442.251	1.29
442.711	0.84
443.171	1.26
443.63	0.18
444.09	-0.12
444.55	0.84
445.009	1
445.469	0.53
445.929	0.17
446.388	1.37
446.848	0.32
447.307	0.45
447.767	0.28
448.226	0.17
448.686	0.28
449.145	0.4
449.604	0.66
450.064	0.24
450.523	0.53
450.982	1.72
451.442	-0.03
451.901	0.6
452.36	0.56
452.819	-0.27
453.278	1.94
453.737	0.81
454.197	0.13
454.656	0.33
455.115	-0.27
455.574	1.16
456.033	0.61
456.492	0.99
456.95	1.03
457.409	0.38
457.868	0.47
458.327	-0.37
458.786	-0.03
459.245	-0.37
459.703	-0.34
460.162	0.01
460.621	0.31
461.079	-0.93
461.538	0.56
461.997	-0.12
462.455	0.88
462.914	0.1
463.372	0.41
463.831	0.27
464.289	-0.35
464.748	0.33
465.206	0.61
465.664	-0.74
466.123	0.37
466.581	-0.9
467.039	0.19
467.497	0.05
467.956	-0.04
468.414	-0.56
468.872	1.28
469.33	0.78
469.788	1.01
470.246	0.01
470.704	-0.14
471.162	-0.44
471.62	1.15
472.078	-0.34
472.536	0.26
472.994	-0.28
473.452	0.75
473.91	0.25
474.368	1.25
474.826	1.42
475.283	-0.29
475.741	-0.59
476.199	1.16
476.656	0.11
477.114	0.01
477.572	-0.73
478.029	0.56
478.487	0.25
478.944	-0.62
479.402	0.71
479.859	-0.14
480.317	-0.14
480.774	1.53
481.232	0.82
481.689	0.06
482.146	-0.19
482.604	-0.76
483.061	-0.75
483.518	-0.34
483.975	0.85
484.433	-0.54
484.89	-0.39
485.347	0.11
485.804	0.41
486.261	-0.9
486.718	0.31
487.175	0.01
487.632	1.06
488.089	-1.28
488.546	0.67
489.003	-0.2
489.46	1.09
489.917	0.11
490.373	0.57
490.83	-1.01
491.287	0.26
491.744	0.69
492.2	-0.04
492.657	0.01
493.114	0.11
493.57	-1.05
494.027	2.05
494.484	0.01
494.94	0.22
495.397	-0.2
495.853	0.31
496.31	0.3
496.766	0.56
497.222	0.21
497.679	-0.39
498.135	0.78
498.591	0.84
499.048	-0.23
499.504	-1.27
499.96	0.53
500.416	1.9
500.872	0.67
501.329	0.43
501.785	0.33
502.241	-0.23
502.697	-0.08
503.153	0.1
503.609	-0.39
504.065	-0.93
504.521	0.59
504.977	-0.69
505.432	0.01
505.888	1.09
506.344	-0.24
506.8	0.55
507.256	0.67
507.711	0.13
508.167	-0.16
508.623	0.01
509.078	1.36
509.534	0.17
509.99	0.4
510.445	0.42
510.901	0.28
511.356	0.46
511.812	0.35
512.267	0.35
512.722	0.48
513.178	0.48
513.633	0.15
514.089	0.59
514.544	-0.24
514.999	0.19
515.454	0.01
515.91	0.86
516.365	-0.63
516.82	0.49
517.275	0.63
517.73	0.92
518.185	0.46
518.64	0.48
519.095	0.14
519.55	0.27
520.005	0.04
520.46	1.13
520.915	-0.16
521.37	0.91
521.825	-0.52
522.28	0.28
522.734	0.41
523.189	0.14
523.644	0.41
524.099	0.96
524.553	0.39
525.008	0.18
525.462	0.54
525.917	0.22
526.372	0.46
526.826	1.33
527.281	-0.87
527.735	0.79
528.19	0.01
528.644	0.78
529.098	0.3
529.553	1.57
530.007	1.28
530.461	-0.21
530.916	-0.36
531.37	1.49
531.824	0.23
532.278	0.68
532.732	0.75
533.186	0.73
533.641	0.2
534.095	0.04
534.549	0.47
535.003	0.59
535.457	0.35
535.911	-0.23
536.365	0.43
536.818	0.13
537.272	-0.19
537.726	0.64
538.18	0.44
538.634	0.47
539.087	0.66
539.541	0.13
539.995	0.55
540.449	0.87
540.902	0.52
541.356	-0.03
541.809	-0.79
542.263	-0.96
542.716	0.87
543.17	-0.07
543.623	0.08
544.077	0.55
544.53	-0.69
544.984	0.69
545.437	0.43
545.89	0.04
546.344	0.62
546.797	-0.81
547.25	0.16
547.703	-1.01
548.157	0.41
548.61	-0.28
549.063	0.77
549.516	-0.61
549.969	-0.28
550.422	-0.17
550.875	-0.9
551.328	-0.06
551.781	-0.06
552.234	0.42
552.687	-0.03
553.14	0.42
553.592	0.07
554.045	0.24
554.498	-0.23
554.951	0.53
555.404	0.58
555.856	0.48
556.309	0.19
556.762	-0.03
557.214	0.1
557.667	0.32
558.119	1.3
558.572	-0.15
559.024	0.69
559.477	0.3
559.929	0.59
560.382	0.09
560.834	1.17
561.286	0
561.739	-0.14
562.191	0.7
562.643	0.72
563.095	0.25
563.548	-0.1
564	1
564.452	0.67
564.904	0.56
565.356	0.84
565.808	0.9
566.26	0.88
566.712	0.34
567.164	0.41
567.616	0.46
568.068	1.05
568.52	1.45
568.972	1.03
569.424	0.57
569.876	0.54
570.327	0.12
570.779	1.19
571.231	1.01
571.682	0.73
572.134	0.1
572.586	0.72
573.037	0.26
573.489	0.77
573.941	0.36
574.392	1.06
574.844	0.36
575.295	0.03
575.746	0.65
576.198	0.29
576.649	0.96
577.101	0.45
577.552	0.81
578.003	-0.02
578.454	0.42
578.906	0.05
579.357	0.61
579.808	0.59
580.259	0.46
580.71	0.56
581.161	1.09
581.612	0.85
582.064	0.53
582.515	0.62
582.965	0.62
583.416	0.63
583.867	0.35
584.318	0.58
584.769	0.84
585.22	0.92
585.671	0.56
586.122	0.74
586.572	0.89
587.023	0.78
587.474	0.82
587.924	-0.02
588.375	0.68
588.826	0.53
589.276	0.35
589.727	1.04
590.177	0.89
590.628	0.26
591.078	0.5
591.529	0.78
591.979	0.35
592.429	0.72
592.88	0.57
593.33	0.29
593.78	1.06
594.231	0.38
594.681	0.28
595.131	0.38
595.581	0.28
596.031	0.26
596.481	0.86
596.932	1.15
597.382	0.98
597.832	0.49
598.282	0.77
598.732	0.24
599.182	0.26
599.632	0.7
600.081	0.49
600.531	0.53
600.981	1.19
601.431	1.27
601.881	0.26
602.33	0.51
602.78	1.01
603.23	0.69
603.679	0.72
604.129	0.52
604.579	1.12
605.028	0.69
605.478	0.74
605.927	0.26
606.377	0.97
606.826	0.68
607.276	0.41
607.725	0.9
608.175	0.56
608.624	0.75
609.073	0.19
609.522	0.92
609.972	0.93
610.421	0.32
610.87	0.39
611.319	0.78
611.768	0.08
612.218	0.78
612.667	1.36
613.116	0.81
613.565	0.97
614.014	0.69
614.463	0.61
614.912	0.61
615.361	1.07
615.81	1.49
616.258	0.78
616.707	0.76
617.156	0.93
617.605	0.68
618.054	0.48
618.502	1.46
618.951	0.63
619.4	1.03
619.848	0.73
620.297	1.24
620.745	0.85
621.194	0.82
621.642	0.69
622.091	0.85
622.539	0.42
622.988	0.85
623.436	0.98
623.885	0.85
624.333	0.67
624.781	0.88
625.23	0.68
625.678	0.84
626.126	0.7
626.574	0.73
627.022	1.06
627.471	0.99
627.919	0.38
628.367	1.01
628.815	0.84
629.263	1.07
629.711	1.38
630.159	0.76
630.607	1.13
631.055	0.97
631.503	0.98
631.95	1.16
632.398	0.75
632.846	0.92
633.294	1.05
633.742	0.87
634.189	0.85
634.637	0.92
635.085	1.27
635.532	0.79
635.98	0.85
636.427	0.85
636.875	1.14
637.323	0.78
637.77	1.35
638.217	1.26
638.665	0.85
639.112	1.01
639.56	0.67
640.007	1.04
640.454	0.85
640.902	0.9
641.349	1.14
641.796	1.04
642.243	0.81
642.69	1.19
643.138	0.76
643.585	1.07
644.032	0.89
644.479	0.69
644.926	0.84
645.373	1.04
645.82	0.9
646.267	1.14
646.714	1.21
647.161	1.07
647.607	1.4
648.054	1.05
648.501	0.81
648.948	0.8
649.395	1.37
649.841	1.16
650.288	0.89
650.735	1.32
651.181	1.14
651.628	1.07
652.075	1.43
652.521	1.12
652.968	0.92
653.414	0.79
653.861	0.9
654.307	1
654.753	1.28
655.2	1.03
655.646	1.05
656.092	1.19
656.539	1.39
656.985	1.23
657.431	1.22
657.877	0.99
658.324	1.1
658.77	1.34
659.216	1.22
659.662	1.37
660.108	1.13
660.554	1.14
661	1.04
661.446	1.19
661.892	1.28
662.338	1.36
662.784	1.53
663.23	1.2
663.675	0.61
664.121	1.33
664.567	1.59
665.013	1.03
665.458	1.13
665.904	1.11
666.35	0.96
666.795	1.17
667.241	1.2
667.687	1.22
668.132	0.96
668.578	1.39
669.023	1.05
669.469	1.06
669.914	1.04
670.359	1.07
670.805	0.99
671.25	1.03
671.695	1
672.141	1.12
672.586	1.37
673.031	1.48
673.476	1.17
673.922	1.07
674.367	0.99
674.812	1.3
675.257	0.96
675.702	1.1
676.147	1.31
676.592	1.09
677.037	1.43
677.482	1.19
677.927	1.2
678.372	1.32
678.817	1.25
679.261	1.28
679.706	1.26
680.151	1.51
680.596	1.27
681.04	1.33
681.485	1.51
681.93	1.07
682.374	1.33
682.819	1.32
683.264	1.34
683.708	1.32
684.153	1.59
684.597	1.53
685.042	1.32
685.486	1.07
685.93	1.43
686.375	1.02
686.819	1.54
687.263	1.24
687.708	1.34
688.152	1.35
688.596	1.28
689.04	1.24
689.485	1.53
689.929	1.29
690.373	1.23
690.817	1.14
691.261	1.52
691.705	1.43
692.149	1.2
692.593	1.37
693.037	1.21
693.481	1.33
693.925	1.38
694.369	1.32
694.812	1.06
695.256	1.37
695.7	1.42
696.144	1.34
696.587	1.34
697.031	1.49
697.475	1.59
697.918	1.52
698.362	1.28
698.806	1.3
699.249	1.47
699.693	1.48
700.136	1.52
700.58	1.13
701.023	1.64
701.466	1.62
701.91	1.46
702.353	1.28
702.796	1.48
703.24	1.25
703.683	1.33
704.126	1.65
704.569	1.33
705.013	1.7
705.456	1.38
705.899	1.35
706.342	1.65
706.785	1.37
707.228	1.48
707.671	1.2
708.114	1.52
708.557	1.09
709	1.44
709.443	1.61
709.886	1.36
710.328	1.74
710.771	1.46
711.214	1.62
711.657	1.78
712.099	1.39
712.542	1.66
712.985	1.61
713.427	1.4
713.87	1.36
714.313	1.4
714.755	1.65
715.198	1.55
715.64	1.98
716.083	1.67
716.525	1.5
716.967	1.69
717.41	1.56
717.852	1.43
718.295	1.54
718.737	1.28
719.179	1.68
719.621	1.46
720.063	1.66
720.506	1.5
720.948	1.64
721.39	1.5
721.832	1.72
722.274	1.7
722.716	1.6
723.158	1.77
723.6	1.28
724.042	1.69
724.484	1.54
724.926	1.78
725.368	1.45
725.81	1.63
726.251	1.77
726.693	1.91
727.135	1.52
727.577	1.64
728.018	1.8
728.46	1.38
728.902	1.74
729.343	1.58
729.785	1.68
730.226	1.83
730.668	1.46
731.109	1.35
731.551	1.78
731.992	1.73
732.434	1.93
732.875	1.5
733.316	1.52
733.758	1.76
734.199	1.8
734.64	1.74
735.081	1.76
735.523	1.66
735.964	1.74
736.405	1.88
736.846	1.64
737.287	1.71
737.728	1.66
738.169	1.69
738.61	1.59
739.051	1.64
739.492	1.59
739.933	1.77
740.374	1.82
740.815	2.01
741.256	1.55
741.696	1.86
742.137	1.65
742.578	1.74
743.019	1.58
743.459	1.51
743.9	1.79
744.341	1.76
744.781	1.67
745.222	1.74
745.662	1.67
746.103	1.8
746.543	1.37
746.984	1.78
747.424	1.74
747.865	2.06
748.305	1.48
748.745	1.79
749.186	1.96
749.626	1.96
750.066	1.69
750.506	1.86
750.947	1.91
751.387	1.75
751.827	1.83
752.267	1.75
752.707	2.14
753.147	1.63
753.587	1.99
754.027	1.93
754.467	1.72
754.907	1.83
755.347	1.96
755.787	1.8
756.227	1.79
756.667	1.95
757.107	2.29
757.546	1.86
757.986	2.06
758.426	1.83
758.865	2.04
759.305	1.94
759.745	1.92
760.184	2.27
760.624	1.76
761.063	2.19
761.503	1.81
761.943	1.91
762.382	1.95
762.821	1.93
763.261	2.09
763.7	2.06
764.14	2.09
764.579	2.26
765.018	2.01
765.457	1.93
765.897	2.27
766.336	2.05
766.775	2.07
767.214	2.05
767.653	1.81
768.092	2.1
768.531	2.04
768.97	1.99
769.409	2.02
769.848	2.23
770.287	2.29
770.726	2.36
771.165	2.32
771.604	2.05
772.043	2.05
772.482	2.31
772.92	2.02
773.359	2.21
773.798	2.06
774.237	2.17
774.675	2.39
775.114	2.26
775.553	2.21
775.991	2.51
776.43	2.4
776.868	2.11
777.307	2.61
777.745	2.3
778.184	2.33
778.622	2.24
779.06	2.32
779.499	2.42
779.937	2.28
780.375	2.04
780.814	2.39
781.252	2.2
781.69	2.44
782.128	2.21
782.566	2.35
783.004	2.13
783.443	2.35
783.881	2.52
784.319	2.25
784.757	2.54
785.195	2.12
785.633	2.4
786.071	2.47
786.508	2.16
786.946	2.33
787.384	2.27
787.822	2.34
788.26	2.39
788.697	2.59
789.135	2.42
789.573	2.49
790.011	2.41
790.448	2.51
790.886	2.3
791.323	2.56
791.761	2.38
792.198	2.5
792.636	2.59
793.073	2.58
793.511	2.39
793.948	2.62
794.386	2.37
794.823	2.49
795.26	2.52
795.698	2.59
796.135	2.63
796.572	2.72
797.009	2.53
797.446	2.46
797.884	2.71
798.321	2.42
798.758	2.5
799.195	2.6
799.632	2.66
800.069	2.35
800.506	2.57
800.943	2.51
801.38	2.67
801.817	2.49
802.254	2.63
802.69	2.58
803.127	2.74
803.564	2.6
804.001	2.58
804.438	2.83
804.874	2.62
805.311	2.59
805.748	2.7
806.184	2.71
806.621	2.66
807.057	2.52
807.494	2.69
807.93	2.71
808.367	2.72
808.803	2.73
809.24	2.82
809.676	2.7
810.112	2.72
810.549	2.69
810.985	2.85
811.421	2.69
811.857	2.83
812.294	2.91
812.73	2.91
813.166	2.91
813.602	2.74
814.038	2.86
814.474	2.99
814.91	2.93
815.346	2.84
815.782	2.81
816.218	2.83
816.654	3.17
817.09	2.91
817.526	2.91
817.962	2.93
818.398	2.98
818.833	2.99
819.269	2.95
819.705	2.87
820.141	3.21
820.576	2.87
821.012	3.06
821.447	2.88
821.883	2.84
822.319	2.99
822.754	2.95
823.19	3.04
823.625	2.97
824.061	2.9
824.496	3.09
824.931	2.99
825.367	3.22
825.802	2.96
826.237	3.26
826.673	3.02
827.108	3.13
827.543	3.18
827.978	3.19
828.413	3.18
828.849	3.07
829.284	3.16
829.719	3.26
830.154	3.36
830.589	3.29
831.024	3.31
831.459	3.1
831.894	3.26
832.329	3.27
832.763	3.24
833.198	3.13
833.633	3.49
834.068	3.3
834.503	3.34
834.937	3.23
835.372	3.31
835.807	3.25
836.241	3.47
836.676	3.25
837.111	3.3
837.545	3.29
837.98	3.48
838.414	3.28
838.849	3.34
839.283	3.43
839.717	3.53
840.152	3.26
840.586	3.53
841.021	3.43
841.455	3.33
841.889	3.48
842.323	3.41
842.758	3.52
843.192	3.34
843.626	3.44
844.06	3.67
844.494	3.48
844.928	3.5
845.362	3.59
845.796	3.47
846.23	3.5
846.664	3.75
847.098	3.62
847.532	3.8
847.966	3.75
848.4	3.53
848.834	3.61
849.267	3.57
849.701	3.37
850.135	3.53
850.569	3.56
851.002	3.66
851.436	3.62
851.87	3.6
852.303	3.69
852.737	3.75
853.17	3.68
853.604	3.69
854.037	3.89
854.471	3.89
854.904	3.77
855.337	3.8
855.771	3.94
856.204	3.62
856.637	3.99
857.071	3.95
857.504	3.94
857.937	3.97
858.37	3.77
858.804	3.72
859.237	3.92
859.67	4.05
860.103	3.94
860.536	3.89
860.969	3.84
861.402	3.91
861.835	3.95
862.268	3.79
862.701	3.99
863.134	3.86
863.566	3.87
863.999	3.98
864.432	4
864.865	4.12
865.298	4.07
865.73	4.07
866.163	4.11
866.596	3.99
867.028	3.96
867.461	4.36
867.893	4.22
868.326	4.06
868.758	4.1
869.191	4.33
869.623	4.18
870.056	4.08
870.488	4.29
870.92	4.21
871.353	4.16
871.785	4.18
872.217	4.3
872.65	4.34
873.082	4.22
873.514	4.26
873.946	4.06
874.378	4.25
874.81	4.24
875.243	4.27
875.675	4.23
876.107	4.33
876.539	4.33
876.971	4.18
877.403	4.28
877.834	4.28
878.266	4.41
878.698	4.27
879.13	4.16
879.562	4.58
879.994	4.43
880.425	4.36
880.857	4.65
881.289	4.39
881.72	4.41
882.152	4.35
882.584	4.45
883.015	4.55
883.447	4.57
883.878	4.66
884.31	4.42
884.741	4.64
885.173	4.66
885.604	4.58
886.035	4.74
886.467	4.79
886.898	4.69
887.329	4.63
887.76	4.69
888.192	4.77
888.623	4.66
889.054	4.7
889.485	4.85
889.916	4.8
890.347	4.7
890.778	4.82
891.209	4.59
891.64	4.87
892.071	4.89
892.502	4.83
892.933	4.75
893.364	4.91
893.795	4.77
894.226	4.88
894.657	4.8
895.087	4.84
895.518	4.91
895.949	4.99
896.38	5.08
896.81	5.01
897.241	5.19
897.671	5.24
898.102	5.1
898.533	5.12
898.963	5.03
899.394	4.99
899.824	5.03
900.254	5.17
900.685	5.14
901.115	5.03
901.546	5.13
901.976	5.03
902.406	5.23
902.836	5.16
903.267	5.08
903.697	5.02
904.127	5.28
904.557	5.2
904.987	5.17
905.417	5.14
905.847	5.28
906.277	5.24
906.707	5.19
907.137	5.21
907.567	5.31
907.997	5.31
908.427	5.35
908.857	5.39
909.287	5.48
909.717	5.39
910.146	5.54
910.576	5.42
911.006	5.27
911.436	5.34
911.865	5.48
912.295	5.46
912.724	5.4
913.154	5.66
913.584	5.45
914.013	5.51
914.443	5.49
914.872	5.35
915.302	5.55
915.731	5.7
916.16	5.59
916.59	5.42
917.019	5.66
917.448	5.58
917.878	5.74
918.307	5.53
918.736	5.65
919.165	5.76
919.594	5.71
920.023	5.81
920.452	5.8
920.882	5.76
921.311	5.6
921.74	5.71
922.169	5.92
922.597	5.77
923.026	5.78
923.455	5.91
923.884	6.01
924.313	5.84
924.742	5.86
925.171	6.06
925.599	6
926.028	6.04
926.457	6.05
926.885	6.13
927.314	5.98
927.743	6.19
928.171	6.16
928.6	5.97
929.028	6.01
929.457	5.97
929.885	5.97
930.314	6.02
930.742	6
931.17	6.14
931.599	6.07
932.027	6
932.455	6.02
932.884	6.28
933.312	6.21
933.74	6.1
934.168	6.16
934.596	6.44
935.025	6.38
935.453	6.34
935.881	6.31
936.309	6.25
936.737	6.08
937.165	5.99
937.593	6.22
938.021	6.29
938.449	6.34
938.876	6.56
939.304	6.34
939.732	6.32
940.16	6.31
940.588	6.29
941.015	6.36
941.443	6.51
941.871	6.8
942.298	6.4
942.726	6.42
943.154	6.46
943.581	6.16
944.009	6.38
944.436	6.63
944.864	6.55
945.291	6.51
945.718	6.58
946.146	6.86
946.573	6.25
947.001	6.79
947.428	6.41
947.855	6.79
948.282	6.69
948.71	6.57
949.137	6.77
949.564	6.53
949.991	6.65
950.418	6.83
950.845	6.65
951.272	6.76
951.699	6.68
952.126	6.74
952.553	6.95
952.98	6.83
953.407	6.75
953.834	6.99
954.261	6.97
954.688	7.1
955.114	7
955.541	6.94
955.968	7.03
956.395	7.07
956.821	6.84
957.248	6.93
957.674	7.08
958.101	6.96
958.528	7.12
958.954	7.01
959.381	7.09
959.807	7.25
960.234	7.15
960.66	7.08
961.086	7.25
961.513	7.25
961.939	7.25
962.365	7.1
962.792	7.31
963.218	7.37
963.644	7.3
964.07	7.43
964.496	7.24
964.923	7.27
965.349	7.41
965.775	7.59
966.201	7.3
966.627	7.4
967.053	7.25
967.479	7.49
967.905	7.64
968.331	7.49
968.756	7.51
969.182	7.41
969.608	7.53
970.034	7.51
970.46	7.46
970.885	7.43
971.311	7.67
971.737	7.69
972.162	7.61
972.588	7.59
973.014	7.69
973.439	7.72
973.865	7.7
974.29	7.51
974.716	7.54
975.141	7.67
975.567	7.83
975.992	7.79
976.417	7.61
976.843	7.83
977.268	7.8
977.693	7.78
978.119	7.91
978.544	7.76
978.969	7.76
979.394	7.94
979.819	7.77
980.244	7.84
980.669	7.73
981.095	8.04
981.52	7.88
981.945	7.98
982.369	8.1
982.794	8.03
983.219	8.11
983.644	8.03
984.069	8.16
984.494	8.21
984.919	8.2
985.343	8.08
985.768	8.08
986.193	8.17
986.618	8.01
987.042	8.24
987.467	8.26
987.891	8.29
988.316	8.48
988.741	8.33
989.165	8.28
989.59	8.23
990.014	8.31
990.438	8.2
990.863	8.39
991.287	8.38
991.712	8.54
992.136	8.55
992.56	8.53
992.984	8.37
993.409	8.4
993.833	8.56
994.257	8.45
994.681	8.56
995.105	8.52
995.529	8.41
995.953	8.53
996.377	8.61
996.801	8.66
997.225	8.64
997.649	8.69
998.073	8.81
998.497	8.43
998.921	8.72
999.345	8.78
999.769	8.79
1000.192	8.69
1000.616	8.78
1001.04	8.78
1001.464	8.81
1001.887	8.79
1002.311	8.94
1002.734	8.95
1003.158	8.96
1003.582	8.77
1004.005	8.94
1004.429	8.93
1004.852	8.84
1005.275	8.91
1005.699	8.96
1006.122	9.01
1006.546	8.97
1006.969	9.06
1007.392	9.04
1007.815	9.16
1008.239	9
1008.662	9.37
1009.085	9.08
1009.508	9.03
1009.931	9
1010.354	9.25
1010.778	9.25
1011.201	9.16
1011.624	9.28
1012.047	9.26
1012.469	9.4
1012.892	9.37
1013.315	9.38
1013.738	9.26
1014.161	9.23
1014.584	9.33
1015.007	9.27
1015.429	9.34
1015.852	9.27
1016.275	9.46
1016.697	9.35
1017.12	9.35
1017.543	9.43
1017.965	9.45
1018.388	9.35
1018.81	9.35
1019.233	9.56
1019.655	9.58
1020.078	9.42
1020.5	9.61
1020.922	9.71
1021.345	9.49
1021.767	9.5
1022.189	9.61
1022.612	9.75
1023.034	9.78
1023.456	9.64
1023.878	9.85
1024.301	9.7
1024.723	9.65
1025.145	9.78
1025.567	9.79
1025.989	9.94
1026.411	9.72
1026.833	9.9
1027.255	9.99
1027.677	9.83
1028.099	9.73
1028.52	9.8
1028.942	9.91
1029.364	9.93
1029.786	10.04
1030.208	10.09
1030.629	10
1031.051	10.01
1031.473	10.06
1031.894	10.03
1032.316	10.14
1032.738	9.8
1033.159	10.1
1033.581	10.01
1034.002	10.06
1034.424	10.14
1034.845	10.27
1035.267	10.35
1035.688	10.28
1036.109	10.22
1036.531	10.3
1036.952	10.3
1037.373	10.44
1037.794	10.11
1038.216	10.46
1038.637	10.36
1039.058	10.3
1039.479	10.53
1039.9	10.36
1040.321	10.29
1040.742	10.3
1041.163	10.11
1041.584	10.39
1042.005	10.54
1042.426	10.5
1042.847	10.32
1043.268	10.67
1043.689	10.41
1044.11	10.91
1044.53	10.38
1044.951	10.48
1045.372	10.65
1045.793	10.23
1046.213	10.99
1046.634	10.32
1047.055	10.48
1047.475	11.22
1047.896	10.63
1048.316	10.81
1048.737	10.84
1049.157	10.88
1049.578	10.89
1049.998	10.91
1050.419	10.27
1050.839	10.63
1051.259	10.78
1051.68	10.99
1052.1	10.75
1052.52	10.78
1052.94	10.85
1053.361	10.97
1053.781	10.91
1054.201	11
1054.621	11.41
1055.041	10.91
1055.461	10.64
1055.881	10.72
1056.301	11.17
1056.721	11.27
1057.141	11.41
1057.561	11.33
1057.981	11.13
1058.401	11.35
1058.82	10.95
1059.24	10.89
1059.66	10.92
1060.08	11.28
1060.499	10.79
1060.919	11.26
1061.339	11.21
1061.758	11.34
1062.178	11.5
1062.598	10.7
1063.017	11.44
1063.437	11.64
1063.856	10.8
1064.276	11.18
1064.695	11.18
1065.114	11.28
1065.534	11.13
1065.953	11.47
1066.372	11.19
1066.792	11.03
1067.211	11.12
1067.63	11.38
1068.049	11.2
1068.469	11.18
1068.888	11.45
1069.307	11.21
1069.726	11.8
1070.145	11.48
1070.564	11.45
1070.983	11.51
1071.402	11.2
1071.821	11.47
1072.24	11.64
1072.659	11.38
1073.078	11.37
1073.496	11.44
1073.915	11.21
1074.334	11.78
1074.753	11.18
1075.171	10.99
1075.59	11.43
1076.009	11.74
1076.427	11.47
1076.846	11.37
1077.265	11.81
1077.683	11.22
1078.102	12.62
1078.52	11.89
1078.939	11.47
1079.357	11.6
1079.776	11.29
1080.194	11.67
1080.612	11.44
1081.031	11.65
1081.449	11.59
1081.867	9.5
1082.285	11.43
1082.704	11.5
1083.122	11.91
1083.54	11.34
1083.958	11.48
1084.376	11.65
1084.794	11.27
1085.212	11.38
1085.63	11.37
1086.048	12.04
1086.466	11.53
1086.884	12.16
1087.302	11.18
1087.72	11.59
1088.138	12.17
1088.555	11.53
1088.973	11.73
1089.391	12.46
1089.809	12.67
1090.226	11.14
1090.644	12.39
1091.062	11.92
1091.479	12.18
1091.897	11.92
1092.314	12.44
1092.732	12.07
1093.15	11.18
1093.567	12.06
1093.984	11.35
1094.402	12.22
1094.819	12.11
1095.237	12.02
1095.654	11.58
1096.071	11.05
1096.488	12.02
1096.906	12.31
1097.323	11.18
1097.74	12.2
1098.157	12.52
1098.574	12.46
1098.991	11.75
1099.409	10.96
1099.826	11.98
1100.243	12.22
1100.66	12.54
1101.077	11.99
1101.494	12.53
1101.91	11.84
1102.327	11.87
1102.744	12.31
1103.161	11.95
1103.578	11.01
1103.994	11.14
1104.411	12.65
1104.828	11.69
1105.245	12.91
1105.661	12.8
1106.078	10.88
1106.494	12.46
1106.911	10.06
1107.328	13.27
1107.744	12.14
1108.161	11.46
1108.577	10.86
1108.993	10.7
1109.41	13.11
1109.826	13.01
1110.242	12.08
1110.659	11.83
1111.075	11.46
1111.491	12.85
1111.908	10
1112.324	12.09
1112.74	-6.15
1113.156	9.47
1113.572	10.85
1113.988	10.26
1114.404	12.44
1114.82	9.98
1115.236	10.45
1115.652	11.98
1116.068	10.85
1116.484	10.27
1116.9	13.27
1117.316	9.94
1117.732	-8.97
1118.147	36.11
1118.563	-70.83
1118.979	16.67
